%OpenBCI Raw EXG Data
%Number of channels = 8
%Sample Rate = 250 Hz
%Board = OpenBCI_GUI$BoardCytonSerial
Sample Index, EXG Channel 0, EXG Channel 1, EXG Channel 2, EXG Channel 3, EXG Channel 4, EXG Channel 5, EXG Channel 6, EXG Channel 7, Accel Channel 0, Accel Channel 1, Accel Channel 2, Other, Other, Other, Other, Other, Other, Other, Analog Channel 0, Analog Channel 1, Analog Channel 2, Timestamp, Other, Timestamp (Formatted)
0.0, -5223.625030949715, -14548.996335148375, -187500.02235174447, -187500.02235174447, 187500.0, 187500.0, 187500.0, -187500.02235174447, -0.036000000000000004, 0.392, 0.308, 192.0, 254.0, 224.0, 12.0, 64.0, 9.0, 160.0, 0.0, 0.0, 0.0, 1.7124604622009242E9, 0.0, 2024-04-06 23:27:42.200
1.0, -5479.910132874266, -30628.371909662714, -187500.02235174447, -187500.02235174447, 187500.0, 187500.0, 187500.0, -187500.02235174447, -0.036000000000000004, 0.392, 0.308, 192.0, 0.0, 0.0, 0.0, 0.0, 0.0, 0.0, 0.0, 0.0, 0.0, 1.712460462681238E9, 0.0, 2024-04-06 23:27:42.681
2.0, -5237.0360776229, -12628.333285848295, -187500.02235174447, -187500.02235174447, 187500.0, 187500.0, 187500.0, -187500.02235174447, -0.036000000000000004, 0.392, 0.308, 192.0, 0.0, 0.0, 0.0, 0.0, 0.0, 0.0, 0.0, 0.0, 0.0, 1.712460462681338E9, 0.0, 2024-04-06 23:27:42.681
3.0, -5017.497243582874, 8296.073472031769, -187500.02235174447, -187500.02235174447, 187500.0, 187500.0, 187500.0, -187500.02235174447, -0.036000000000000004, 0.392, 0.308, 192.0, 0.0, 0.0, 0.0, 0.0, 0.0, 0.0, 0.0, 0.0, 0.0, 1.712460462681356E9, 0.0, 2024-04-06 23:27:42.681
4.0, -5136.073247918278, -9513.327123323337, -187500.02235174447, -187500.02235174447, 187500.0, 187500.0, 187500.0, -187500.02235174447, -0.036000000000000004, 0.392, 0.308, 192.0, 0.0, 0.0, 0.0, 0.0, 0.0, 0.0, 0.0, 0.0, 0.0, 1.712460462681373E9, 0.0, 2024-04-06 23:27:42.681
5.0, -5484.3581300208725, -30603.270900639403, -187500.02235174447, -187500.02235174447, 187500.0, 187500.0, 187500.0, -187500.02235174447, -0.036000000000000004, 0.392, 0.308, 192.0, 0.0, 0.0, 0.0, 0.0, 0.0, 0.0, 0.0, 0.0, 0.0, 1.7124604626813984E9, 0.0, 2024-04-06 23:27:42.681
6.0, -5282.767746778459, -17764.22771981093, -187500.02235174447, -187500.02235174447, 187500.0, 187500.0, 187500.0, -187500.02235174447, -0.036000000000000004, 0.392, 0.308, 192.0, 0.0, 0.0, 0.0, 0.0, 0.0, 0.0, 0.0, 0.0, 0.0, 1.7124604626814227E9, 0.0, 2024-04-06 23:27:42.681
7.0, -5044.8781305406255, 7151.977080342422, -187500.02235174447, -187500.02235174447, 187500.0, 187500.0, 187500.0, -187500.02235174447, -0.052000000000000005, 0.5760000000000001, 0.452, 192.0, 254.0, 96.0, 18.0, 0.0, 14.0, 32.0, 0.0, 0.0, 0.0, 1.7124604626814575E9, 0.0, 2024-04-06 23:27:42.681
8.0, -5065.307624972776, -4418.537547414011, -187500.02235174447, -187500.02235174447, 187500.0, 187500.0, 187500.0, -187500.02235174447, -0.052000000000000005, 0.5760000000000001, 0.452, 192.0, 0.0, 0.0, 0.0, 0.0, 0.0, 0.0, 0.0, 0.0, 0.0, 1.7124604626814735E9, 0.0, 2024-04-06 23:27:42.681
9.0, -5467.840190868401, -29306.623853042587, -187500.02235174447, -187500.02235174447, 187500.0, 187500.0, 187500.0, -187500.02235174447, -0.052000000000000005, 0.5760000000000001, 0.452, 192.0, 0.0, 0.0, 0.0, 0.0, 0.0, 0.0, 0.0, 0.0, 0.0, 1.7124604626814897E9, 0.0, 2024-04-06 23:27:42.681
10.0, -5330.645183401726, -22173.109313620247, -187500.02235174447, -187500.02235174447, 187500.0, 187500.0, 187500.0, -187500.02235174447, -0.052000000000000005, 0.5760000000000001, 0.452, 192.0, 0.0, 0.0, 0.0, 0.0, 0.0, 0.0, 0.0, 0.0, 0.0, 1.712460462681505E9, 0.0, 2024-04-06 23:27:42.681
11.0, -5079.053947812789, 4858.553988761186, -187500.02235174447, -187500.02235174447, 187500.0, 187500.0, 187500.0, -187500.02235174447, -0.052000000000000005, 0.5760000000000001, 0.452, 192.0, 0.0, 0.0, 0.0, 0.0, 0.0, 0.0, 0.0, 0.0, 0.0, 1.7124604626815226E9, 0.0, 2024-04-06 23:27:42.681
12.0, -5017.206670904955, 313.2596985411285, -187500.02235174447, -187500.02235174447, 187500.0, 187500.0, 187500.0, -187500.02235174447, -0.052000000000000005, 0.5760000000000001, 0.452, 192.0, 0.0, 0.0, 0.0, 0.0, 0.0, 0.0, 0.0, 0.0, 0.0, 1.7124604626815414E9, 0.0, 2024-04-06 23:27:42.681
13.0, -5430.1775014612085, -26874.776408049634, -187500.02235174447, -187500.02235174447, 187500.0, 187500.0, 187500.0, -187500.02235174447, -0.052000000000000005, 0.5760000000000001, 0.452, 192.0, 0.0, 0.0, 0.0, 0.0, 0.0, 0.0, 0.0, 0.0, 0.0, 1.7124604626815617E9, 0.0, 2024-04-06 23:27:42.681
14.0, -5383.082375893877, -25811.928607455327, -187500.02235174447, -187500.02235174447, 187500.0, 187500.0, 187500.0, -187500.02235174447, -0.052000000000000005, 0.5760000000000001, 0.452, 192.0, 0.0, 0.0, 0.0, 0.0, 0.0, 0.0, 0.0, 0.0, 0.0, 1.712460462681583E9, 0.0, 2024-04-06 23:27:42.681
15.0, -5120.248212843921, 1393.8100807440378, -187500.02235174447, -187500.02235174447, 187500.0, 187500.0, 187500.0, -187500.02235174447, -0.052000000000000005, 0.5760000000000001, 0.452, 192.0, 0.0, 0.0, 0.0, 0.0, 0.0, 0.0, 0.0, 0.0, 0.0, 1.7124604626815984E9, 0.0, 2024-04-06 23:27:42.681
16.0, -4995.436071805486, 4337.557177252434, -187500.02235174447, -187500.02235174447, 187500.0, 187500.0, 187500.0, -187500.02235174447, -0.052000000000000005, 0.5760000000000001, 0.452, 192.0, 0.0, 0.0, 0.0, 0.0, 0.0, 0.0, 0.0, 0.0, 0.0, 1.7124604626816137E9, 0.0, 2024-04-06 23:27:42.681
17.0, -5373.739346711558, -23244.94251548559, -187500.02235174447, -187500.02235174447, 187500.0, 187500.0, 187500.0, -187500.02235174447, -0.06, 0.672, 0.522, 192.0, 254.0, 32.0, 21.0, 0.0, 16.0, 80.0, 0.0, 0.0, 0.0, 1.7124604626816294E9, 0.0, 2024-04-06 23:27:42.681
18.0, -5435.720734086124, -28486.06896234381, -187500.02235174447, -187500.02235174447, 187500.0, 187500.0, 187500.0, -187500.02235174447, -0.06, 0.672, 0.522, 192.0, 0.0, 0.0, 0.0, 0.0, 0.0, 0.0, 0.0, 0.0, 0.0, 1.7124604626816473E9, 0.0, 2024-04-06 23:27:42.681
19.0, -5167.186876200066, -3036.953870887026, -187500.02235174447, -187500.02235174447, 187500.0, 187500.0, 187500.0, -187500.02235174447, -0.06, 0.672, 0.522, 192.0, 0.0, 0.0, 0.0, 0.0, 0.0, 0.0, 0.0, 0.0, 0.0, 1.7124604626816628E9, 0.0, 2024-04-06 23:27:42.681
20.0, -4998.095929395668, 7234.566776104782, -187500.02235174447, -187500.02235174447, 187500.0, 187500.0, 187500.0, -187500.02235174447, -0.06, 0.672, 0.522, 192.0, 0.0, 0.0, 0.0, 0.0, 0.0, 0.0, 0.0, 0.0, 0.0, 1.7124604626816776E9, 0.0, 2024-04-06 23:27:42.681
21.0, -5305.611229611782, -18728.772548290795, -187500.02235174447, -187500.02235174447, 187500.0, 187500.0, 187500.0, -187500.02235174447, -0.06, 0.672, 0.522, 192.0, 0.0, 0.0, 0.0, 0.0, 0.0, 0.0, 0.0, 0.0, 0.0, 1.712460462681693E9, 0.0, 2024-04-06 23:27:42.681
22.0, -5485.810993410468, -30211.93655871589, -187500.02235174447, -187500.02235174447, 187500.0, 187500.0, 187500.0, -187500.02235174447, -0.06, 0.672, 0.522, 192.0, 0.0, 0.0, 0.0, 0.0, 0.0, 0.0, 0.0, 0.0, 0.0, 1.712460462681708E9, 0.0, 2024-04-06 23:27:42.681
23.0, -5224.362638516741, -8162.6559093780415, -187500.02235174447, -187500.02235174447, 187500.0, 187500.0, 187500.0, -187500.02235174447, -0.06, 0.672, 0.522, 192.0, 0.0, 0.0, 0.0, 0.0, 0.0, 0.0, 0.0, 0.0, 0.0, 1.7124604626817272E9, 0.0, 2024-04-06 23:27:42.681
24.0, -5024.046304708279, 8692.235790757632, -187500.02235174447, -187500.02235174447, 187500.0, 187500.0, 187500.0, -187500.02235174447, -0.06, 0.672, 0.522, 192.0, 0.0, 0.0, 0.0, 0.0, 0.0, 0.0, 0.0, 0.0, 0.0, 1.7124604626817453E9, 0.0, 2024-04-06 23:27:42.681
25.0, -5236.052600866867, -13678.641757803174, -187500.02235174447, -187500.02235174447, 187500.0, 187500.0, 187500.0, -187500.02235174447, -0.06, 0.672, 0.522, 192.0, 0.0, 0.0, 0.0, 0.0, 0.0, 0.0, 0.0, 0.0, 0.0, 1.7124604626817603E9, 0.0, 2024-04-06 23:27:42.681
26.0, -5525.083008418443, -30988.547919815534, -187500.02235174447, -187500.02235174447, 187500.0, 187500.0, 187500.0, -187500.02235174447, -0.06, 0.672, 0.522, 192.0, 0.0, 0.0, 0.0, 0.0, 0.0, 0.0, 0.0, 0.0, 0.0, 1.712460462681775E9, 0.0, 2024-04-06 23:27:42.681
27.0, -5286.344025891308, -13440.863900287617, -187500.02235174447, -187500.02235174447, 187500.0, 187500.0, 187500.0, -187500.02235174447, -0.056, 0.718, 0.5700000000000001, 192.0, 254.0, 64.0, 22.0, 112.0, 17.0, 208.0, 0.0, 0.0, 0.0, 1.7124604626817904E9, 0.0, 2024-04-06 23:27:42.681
28.0, -5062.625415638139, 8787.811850048525, -187500.02235174447, -187500.02235174447, 187500.0, 187500.0, 187500.0, -187500.02235174447, -0.056, 0.718, 0.5700000000000001, 192.0, 0.0, 0.0, 0.0, 0.0, 0.0, 0.0, 0.0, 0.0, 0.0, 1.712460462681806E9, 0.0, 2024-04-06 23:27:42.681
29.0, -5168.036242489367, -8275.263997943879, -187500.02235174447, -187500.02235174447, 187500.0, 187500.0, 187500.0, -187500.02235174447, -0.056, 0.718, 0.5700000000000001, 192.0, 0.0, 0.0, 0.0, 0.0, 0.0, 0.0, 0.0, 0.0, 0.0, 1.7124604626818218E9, 0.0, 2024-04-06 23:27:42.681
30.0, -5539.343421380928, -30575.644144492646, -187500.02235174447, -187500.02235174447, 187500.0, 187500.0, 187500.0, -187500.02235174447, -0.056, 0.718, 0.5700000000000001, 192.0, 0.0, 0.0, 0.0, 0.0, 0.0, 0.0, 0.0, 0.0, 0.0, 1.7124604626818433E9, 0.0, 2024-04-06 23:27:42.681
31.0, -5345.509093464505, -18401.431250742826, -187500.02235174447, -187500.02235174447, 187500.0, 187500.0, 187500.0, -187500.02235174447, -0.056, 0.718, 0.5700000000000001, 192.0, 0.0, 0.0, 0.0, 0.0, 0.0, 0.0, 0.0, 0.0, 0.0, 1.712460462681872E9, 0.0, 2024-04-06 23:27:42.681
32.0, -5104.423177769563, 7531.196776771161, -187500.02235174447, -187500.02235174447, 187500.0, 187500.0, 187500.0, -187500.02235174447, -0.056, 0.718, 0.5700000000000001, 192.0, 0.0, 0.0, 0.0, 0.0, 0.0, 0.0, 0.0, 0.0, 0.0, 1.7124604626818871E9, 0.0, 2024-04-06 23:27:42.681
33.0, -5111.754549950904, -3025.0627428368025, -187500.02235174447, -187500.02235174447, 187500.0, 187500.0, 187500.0, -187500.02235174447, -0.056, 0.718, 0.5700000000000001, 192.0, 0.0, 0.0, 0.0, 0.0, 0.0, 0.0, 0.0, 0.0, 0.0, 1.712460462681903E9, 0.0, 2024-04-06 23:27:42.681
34.0, -5529.240432887129, -29052.79744300812, -187500.02235174447, -187500.02235174447, 187500.0, 187500.0, 187500.0, -187500.02235174447, -0.056, 0.718, 0.5700000000000001, 192.0, 0.0, 0.0, 0.0, 0.0, 0.0, 0.0, 0.0, 0.0, 0.0, 1.712460462681918E9, 0.0, 2024-04-06 23:27:42.681
35.0, -5405.568230815916, -22885.19118847742, -187500.02235174447, -187500.02235174447, 187500.0, 187500.0, 187500.0, -187500.02235174447, -0.056, 0.718, 0.5700000000000001, 192.0, 0.0, 0.0, 0.0, 0.0, 0.0, 0.0, 0.0, 0.0, 0.0, 1.7124604626819396E9, 0.0, 2024-04-06 23:27:42.681
36.0, -5149.037259702356, 4826.322773256633, -187500.02235174447, -187500.02235174447, 187500.0, 187500.0, 187500.0, -187500.02235174447, -0.056, 0.718, 0.5700000000000001, 192.0, 0.0, 0.0, 0.0, 0.0, 0.0, 0.0, 0.0, 0.0, 0.0, 1.7124604626819613E9, 0.0, 2024-04-06 23:27:42.681
37.0, -5075.321206488754, 1628.346935313575, -187500.02235174447, -187500.02235174447, 187500.0, 187500.0, 187500.0, -187500.02235174447, -0.052000000000000005, 0.75, 0.602, 192.0, 254.0, 96.0, 23.0, 112.0, 18.0, 208.0, 0.0, 0.0, 0.0, 1.7124604626819792E9, 0.0, 2024-04-06 23:27:42.681
38.0, -5494.662284214769, -26330.489078818453, -187500.02235174447, -187500.02235174447, 187500.0, 187500.0, 187500.0, -187500.02235174447, -0.052000000000000005, 0.75, 0.602, 192.0, 0.0, 0.0, 0.0, 0.0, 0.0, 0.0, 0.0, 0.0, 0.0, 1.712460462682E9, 0.0, 2024-04-06 23:27:42.682
39.0, -5466.588493178903, -26393.431591204597, -187500.02235174447, -187500.02235174447, 187500.0, 187500.0, 187500.0, -187500.02235174447, -0.052000000000000005, 0.75, 0.602, 192.0, 0.0, 0.0, 0.0, 0.0, 0.0, 0.0, 0.0, 0.0, 0.0, 1.7124604626820147E9, 0.0, 2024-04-06 23:27:42.682
40.0, -5198.725187626504, 930.3690112077012, -187500.02235174447, -187500.02235174447, 187500.0, 187500.0, 187500.0, -187500.02235174447, -0.052000000000000005, 0.75, 0.602, 192.0, 0.0, 0.0, 0.0, 0.0, 0.0, 0.0, 0.0, 0.0, 0.0, 1.7124604626820295E9, 0.0, 2024-04-06 23:27:42.682
41.0, -5064.659424383572, 5240.835874180302, -187500.02235174447, -187500.02235174447, 187500.0, 187500.0, 187500.0, -187500.02235174447, -0.052000000000000005, 0.75, 0.602, 192.0, 0.0, 0.0, 0.0, 0.0, 0.0, 0.0, 0.0, 0.0, 0.0, 1.7124604626820445E9, 0.0, 2024-04-06 23:27:42.682
42.0, -5441.733353344603, -22652.53188044213, -187500.02235174447, -187500.02235174447, 187500.0, 187500.0, 187500.0, -187500.02235174447, -0.052000000000000005, 0.75, 0.602, 192.0, 0.0, 0.0, 0.0, 0.0, 0.0, 0.0, 0.0, 0.0, 0.0, 1.712460462682059E9, 0.0, 2024-04-06 23:27:42.682
43.0, -5527.765217753079, -29138.829307416596, -187500.02235174447, -187500.02235174447, 187500.0, 187500.0, 187500.0, -187500.02235174447, -0.052000000000000005, 0.75, 0.602, 192.0, 0.0, 0.0, 0.0, 0.0, 0.0, 0.0, 0.0, 0.0, 0.0, 1.7124604626820743E9, 0.0, 2024-04-06 23:27:42.682
44.0, -5256.280929598919, -3961.444373302981, -187500.02235174447, -187500.02235174447, 187500.0, 187500.0, 187500.0, -187500.02235174447, -0.052000000000000005, 0.75, 0.602, 192.0, 0.0, 0.0, 0.0, 0.0, 0.0, 0.0, 0.0, 0.0, 0.0, 1.7124604626820943E9, 0.0, 2024-04-06 23:27:42.682
45.0, -5078.539857690318, 7696.420871784791, -187500.02235174447, -187500.02235174447, 187500.0, 187500.0, 187500.0, -187500.02235174447, -0.052000000000000005, 0.75, 0.602, 192.0, 0.0, 0.0, 0.0, 0.0, 0.0, 0.0, 0.0, 0.0, 0.0, 1.7124604626821144E9, 0.0, 2024-04-06 23:27:42.682
46.0, -5377.87441943579, -18091.68077608118, -187500.02235174447, -187500.02235174447, 187500.0, 187500.0, 187500.0, -187500.02235174447, -0.052000000000000005, 0.75, 0.602, 192.0, 0.0, 0.0, 0.0, 0.0, 0.0, 0.0, 0.0, 0.0, 0.0, 1.7124604626821308E9, 0.0, 2024-04-06 23:27:42.682
47.0, -5584.985683558665, -30936.289541279024, -187500.02235174447, -187500.02235174447, 187500.0, 187500.0, 187500.0, -187500.02235174447, -0.058, 0.748, 0.608, 192.0, 254.0, 48.0, 23.0, 96.0, 19.0, 0.0, 0.0, 0.0, 0.0, 1.7124604626821458E9, 0.0, 2024-04-06 23:27:42.682
48.0, -5321.9950582975225, -9359.055383092807, -187500.02235174447, -187500.02235174447, 187500.0, 187500.0, 187500.0, -187500.02235174447, -0.058, 0.748, 0.608, 192.0, 0.0, 0.0, 0.0, 0.0, 0.0, 0.0, 0.0, 0.0, 0.0, 1.712460462682162E9, 0.0, 2024-04-06 23:27:42.682
49.0, -5112.872137173669, 8931.712380851792, -187500.02235174447, -187500.02235174447, 187500.0, 187500.0, 187500.0, -187500.02235174447, -0.058, 0.748, 0.608, 192.0, 0.0, 0.0, 0.0, 0.0, 0.0, 0.0, 0.0, 0.0, 0.0, 1.7124604626821785E9, 0.0, 2024-04-06 23:27:42.682
50.0, -5312.115587248277, -12885.199533128683, -187500.02235174447, -187500.02235174447, 187500.0, 187500.0, 187500.0, -187500.02235174447, -0.058, 0.748, 0.608, 192.0, 0.0, 0.0, 0.0, 0.0, 0.0, 0.0, 0.0, 0.0, 0.0, 1.712460462682197E9, 0.0, 2024-04-06 23:27:42.682
51.0, -5627.968088146221, -31573.67188616656, -187500.02235174447, -187500.02235174447, 187500.0, 187500.0, 187500.0, -187500.02235174447, -0.058, 0.748, 0.608, 192.0, 0.0, 0.0, 0.0, 0.0, 0.0, 0.0, 0.0, 0.0, 0.0, 1.7124604626822133E9, 0.0, 2024-04-06 23:27:42.682
52.0, -5391.151355642242, -14768.7363348885, -187500.02235174447, -187500.02235174447, 187500.0, 187500.0, 187500.0, -187500.02235174447, -0.058, 0.748, 0.608, 192.0, 0.0, 0.0, 0.0, 0.0, 0.0, 0.0, 0.0, 0.0, 0.0, 1.7124604626822293E9, 0.0, 2024-04-06 23:27:42.682
53.0, -5159.386117385164, 8761.97323345819, -187500.02235174447, -187500.02235174447, 187500.0, 187500.0, 187500.0, -187500.02235174447, -0.058, 0.748, 0.608, 192.0, 0.0, 0.0, 0.0, 0.0, 0.0, 0.0, 0.0, 0.0, 0.0, 1.7124604626822448E9, 0.0, 2024-04-06 23:27:42.682
54.0, -5251.005917907467, -7426.009467364486, -187500.02235174447, -187500.02235174447, 187500.0, 187500.0, 187500.0, -187500.02235174447, -0.058, 0.748, 0.608, 192.0, 0.0, 0.0, 0.0, 0.0, 0.0, 0.0, 0.0, 0.0, 0.0, 1.7124604626822608E9, 0.0, 2024-04-06 23:27:42.682
55.0, -5646.743553488678, -30892.43541865771, -187500.02235174447, -187500.02235174447, 187500.0, 187500.0, 187500.0, -187500.02235174447, -0.058, 0.748, 0.608, 192.0, 0.0, 0.0, 0.0, 0.0, 0.0, 0.0, 0.0, 0.0, 0.0, 1.7124604626822772E9, 0.0, 2024-04-06 23:27:42.682
56.0, -5460.441763453694, -19668.775161358735, -187500.02235174447, -187500.02235174447, 187500.0, 187500.0, 187500.0, -187500.02235174447, -0.058, 0.748, 0.608, 192.0, 0.0, 0.0, 0.0, 0.0, 0.0, 0.0, 0.0, 0.0, 0.0, 1.7124604626822965E9, 0.0, 2024-04-06 23:27:42.682
57.0, -5210.772777887914, 7216.819491007268, -187500.02235174447, -187500.02235174447, 187500.0, 187500.0, 187500.0, -187500.02235174447, -0.062, 0.754, 0.608, 192.0, 254.0, 16.0, 23.0, 144.0, 19.0, 0.0, 0.0, 0.0, 0.0, 1.712460462682313E9, 0.0, 2024-04-06 23:27:42.682
58.0, -5202.614391161727, -2137.9667088945757, -187500.02235174447, -187500.02235174447, 187500.0, 187500.0, 187500.0, -187500.02235174447, -0.062, 0.754, 0.608, 192.0, 0.0, 0.0, 0.0, 0.0, 0.0, 0.0, 0.0, 0.0, 0.0, 1.7124604626823287E9, 0.0, 2024-04-06 23:27:42.682
59.0, -5636.014716150131, -29039.09582365702, -187500.02235174447, -187500.02235174447, 187500.0, 187500.0, 187500.0, -187500.02235174447, -0.062, 0.754, 0.608, 192.0, 0.0, 0.0, 0.0, 0.0, 0.0, 0.0, 0.0, 0.0, 0.0, 1.712460462682345E9, 0.0, 2024-04-06 23:27:42.682
60.0, -5526.647630530314, -23910.82333455364, -187500.02235174447, -187500.02235174447, 187500.0, 187500.0, 187500.0, -187500.02235174447, -0.062, 0.754, 0.608, 192.0, 0.0, 0.0, 0.0, 0.0, 0.0, 0.0, 0.0, 0.0, 0.0, 1.712460462682361E9, 0.0, 2024-04-06 23:27:42.682
61.0, -5262.51706630195, 4348.509532035534, -187500.02235174447, -187500.02235174447, 187500.0, 187500.0, 187500.0, -187500.02235174447, -0.062, 0.754, 0.608, 192.0, 0.0, 0.0, 0.0, 0.0, 0.0, 0.0, 0.0, 0.0, 0.0, 1.712460462682377E9, 0.0, 2024-04-06 23:27:42.682
62.0, -5174.115916981211, 2564.817972757575, -187500.02235174447, -187500.02235174447, 187500.0, 187500.0, 187500.0, -187500.02235174447, -0.062, 0.754, 0.608, 192.0, 0.0, 0.0, 0.0, 0.0, 0.0, 0.0, 0.0, 0.0, 0.0, 1.7124604626823936E9, 0.0, 2024-04-06 23:27:42.682
63.0, -5598.530840698581, -26010.43444996291, -187500.02235174447, -187500.02235174447, 187500.0, 187500.0, 187500.0, -187500.02235174447, -0.062, 0.754, 0.608, 192.0, 0.0, 0.0, 0.0, 0.0, 0.0, 0.0, 0.0, 0.0, 0.0, 1.7124604626824164E9, 0.0, 2024-04-06 23:27:42.682
64.0, -5591.378282472883, -27349.92979168055, -187500.02235174447, -187500.02235174447, 187500.0, 187500.0, 187500.0, -187500.02235174447, -0.062, 0.754, 0.608, 192.0, 0.0, 0.0, 0.0, 0.0, 0.0, 0.0, 0.0, 0.0, 0.0, 1.712460462682432E9, 0.0, 2024-04-06 23:27:42.682
65.0, -5316.42947392815, 132.07645798640942, -187500.02235174447, -187500.02235174447, 187500.0, 187500.0, 187500.0, -187500.02235174447, -0.062, 0.754, 0.608, 192.0, 0.0, 0.0, 0.0, 0.0, 0.0, 0.0, 0.0, 0.0, 0.0, 1.712460462682449E9, 0.0, 2024-04-06 23:27:42.682
66.0, -5169.131477967677, 5972.922560324974, -187500.02235174447, -187500.02235174447, 187500.0, 187500.0, 187500.0, -187500.02235174447, -0.062, 0.754, 0.608, 192.0, 0.0, 0.0, 0.0, 0.0, 0.0, 0.0, 0.0, 0.0, 0.0, 1.7124604626824653E9, 0.0, 2024-04-06 23:27:42.682
67.0, -5538.806979514001, -22053.5051290399, -187500.02235174447, -187500.02235174447, 187500.0, 187500.0, 187500.0, -187500.02235174447, -0.062, 0.754, 0.608, 192.0, 0.0, 0.0, 0.0, 0.0, 0.0, 0.0, 0.0, 0.0, 0.0, 1.7124604626824813E9, 0.0, 2024-04-06 23:27:42.682
68.0, -5648.107009900452, -29956.16554691381, -187500.02235174447, -187500.02235174447, 187500.0, 187500.0, 187500.0, -187500.02235174447, -0.062, 0.762, 0.618, 192.0, 254.0, 16.0, 23.0, 208.0, 19.0, 80.0, 0.0, 0.0, 0.0, 1.7124604626824963E9, 0.0, 2024-04-06 23:27:42.682
69.0, -5371.057137376922, -4986.249504834354, -187500.02235174447, -187500.02235174447, 187500.0, 187500.0, 187500.0, -187500.02235174447, -0.062, 0.762, 0.618, 192.0, 0.0, 0.0, 0.0, 0.0, 0.0, 0.0, 0.0, 0.0, 0.0, 1.712460462682515E9, 0.0, 2024-04-06 23:27:42.682
70.0, -5182.050786262845, 8299.046254044326, -187500.02235174447, -187500.02235174447, 187500.0, 187500.0, 187500.0, -187500.02235174447, -0.062, 0.762, 0.618, 192.0, 0.0, 0.0, 0.0, 0.0, 0.0, 0.0, 0.0, 0.0, 0.0, 1.712460462682531E9, 0.0, 2024-04-06 23:27:42.682
71.0, -5464.353318733373, -17127.851203423885, -187500.02235174447, -187500.02235174447, 187500.0, 187500.0, 187500.0, -187500.02235174447, -0.062, 0.762, 0.618, 192.0, 0.0, 0.0, 0.0, 0.0, 0.0, 0.0, 0.0, 0.0, 0.0, 1.7124604626825497E9, 0.0, 2024-04-06 23:27:42.682
72.0, -5694.978618023231, -31303.796923613183, -187500.02235174447, -187500.02235174447, 187500.0, 187500.0, 187500.0, -187500.02235174447, -0.062, 0.762, 0.618, 192.0, 0.0, 0.0, 0.0, 0.0, 0.0, 0.0, 0.0, 0.0, 0.0, 1.7124604626825652E9, 0.0, 2024-04-06 23:27:42.682
73.0, -5430.713943328135, -10379.278407010843, -187500.02235174447, -187500.02235174447, 187500.0, 187500.0, 187500.0, -187500.02235174447, -0.062, 0.762, 0.618, 192.0, 0.0, 0.0, 0.0, 0.0, 0.0, 0.0, 0.0, 0.0, 0.0, 1.7124604626825805E9, 0.0, 2024-04-06 23:27:42.682
74.0, -5212.627972677705, 9161.95770048591, -187500.02235174447, -187500.02235174447, 187500.0, 187500.0, 187500.0, -187500.02235174447, -0.062, 0.762, 0.618, 192.0, 0.0, 0.0, 0.0, 0.0, 0.0, 0.0, 0.0, 0.0, 0.0, 1.7124604626825976E9, 0.0, 2024-04-06 23:27:42.682
75.0, -5387.530373040482, -11781.246874481069, -187500.02235174447, -187500.02235174447, 187500.0, 187500.0, 187500.0, -187500.02235174447, -0.062, 0.762, 0.618, 192.0, 0.0, 0.0, 0.0, 0.0, 0.0, 0.0, 0.0, 0.0, 0.0, 1.7124604626826136E9, 0.0, 2024-04-06 23:27:42.682
76.0, -5720.169034024362, -31547.229772475934, -187500.02235174447, -187500.02235174447, 187500.0, 187500.0, 187500.0, -187500.02235174447, -0.062, 0.762, 0.618, 192.0, 0.0, 0.0, 0.0, 0.0, 0.0, 0.0, 0.0, 0.0, 0.0, 1.712460462682636E9, 0.0, 2024-04-06 23:27:42.682
77.0, -5487.554429477982, -15651.943165295503, -187500.02235174447, -187500.02235174447, 187500.0, 187500.0, 187500.0, -187500.02235174447, -0.062, 0.762, 0.618, 192.0, 0.0, 0.0, 0.0, 0.0, 0.0, 0.0, 0.0, 0.0, 0.0, 1.7124604626826556E9, 0.0, 2024-04-06 23:27:42.682
78.0, -5248.65898473966, 8858.622176482937, -187500.02235174447, -187500.02235174447, 187500.0, 187500.0, 187500.0, -187500.02235174447, -0.066, 0.76, 0.62, 192.0, 253.0, 240.0, 23.0, 192.0, 19.0, 96.0, 0.0, 0.0, 0.0, 1.7124604626826713E9, 0.0, 2024-04-06 23:27:42.682
79.0, -5317.971744295567, -6154.821056702263, -187500.02235174447, -187500.02235174447, 187500.0, 187500.0, 187500.0, -187500.02235174447, -0.066, 0.76, 0.62, 192.0, 0.0, 0.0, 0.0, 0.0, 0.0, 0.0, 0.0, 0.0, 0.0, 1.7124604626826868E9, 0.0, 2024-04-06 23:27:42.682
80.0, -5725.935784093832, -30699.02577388594, -187500.02235174447, -187500.02235174447, 187500.0, 187500.0, 187500.0, -187500.02235174447, -0.066, 0.76, 0.62, 192.0, 0.0, 0.0, 0.0, 0.0, 0.0, 0.0, 0.0, 0.0, 0.0, 1.7124604626827028E9, 0.0, 2024-04-06 23:27:42.682
81.0, -5549.066430218987, -20604.597998213532, -187500.02235174447, -187500.02235174447, 187500.0, 187500.0, 187500.0, -187500.02235174447, -0.066, 0.76, 0.62, 192.0, 0.0, 0.0, 0.0, 0.0, 0.0, 0.0, 0.0, 0.0, 0.0, 1.7124604626827223E9, 0.0, 2024-04-06 23:27:42.682
82.0, -5293.161307950176, 6877.385899708975, -187500.02235174447, -187500.02235174447, 187500.0, 187500.0, 187500.0, -187500.02235174447, -0.066, 0.76, 0.62, 192.0, 0.0, 0.0, 0.0, 0.0, 0.0, 0.0, 0.0, 0.0, 0.0, 1.7124604626827416E9, 0.0, 2024-04-06 23:27:42.682
83.0, -5266.987415193012, -1144.0963916893472, -187500.02235174447, -187500.02235174447, 187500.0, 187500.0, 187500.0, -187500.02235174447, -0.066, 0.76, 0.62, 192.0, 0.0, 0.0, 0.0, 0.0, 0.0, 0.0, 0.0, 0.0, 0.0, 1.712460462682758E9, 0.0, 2024-04-06 23:27:42.682
84.0, -5707.406187940382, -28754.55811674096, -187500.02235174447, -187500.02235174447, 187500.0, 187500.0, 187500.0, -187500.02235174447, -0.066, 0.76, 0.62, 192.0, 0.0, 0.0, 0.0, 0.0, 0.0, 0.0, 0.0, 0.0, 0.0, 1.7124604626827743E9, 0.0, 2024-04-06 23:27:42.682
85.0, -5614.646448450858, -24828.898886310923, -187500.02235174447, -187500.02235174447, 187500.0, 187500.0, 187500.0, -187500.02235174447, -0.066, 0.76, 0.62, 192.0, 0.0, 0.0, 0.0, 0.0, 0.0, 0.0, 0.0, 0.0, 0.0, 1.7124604626827908E9, 0.0, 2024-04-06 23:27:42.682
86.0, -5344.257395775008, 3671.8104686511124, -187500.02235174447, -187500.02235174447, 187500.0, 187500.0, 187500.0, -187500.02235174447, -0.066, 0.76, 0.62, 192.0, 0.0, 0.0, 0.0, 0.0, 0.0, 0.0, 0.0, 0.0, 0.0, 1.7124604626828063E9, 0.0, 2024-04-06 23:27:42.682
87.0, -5242.311089314352, 3309.555746263951, -187500.02235174447, -187500.02235174447, 187500.0, 187500.0, 187500.0, -187500.02235174447, -0.066, 0.76, 0.62, 192.0, 0.0, 0.0, 0.0, 0.0, 0.0, 0.0, 0.0, 0.0, 0.0, 1.7124604626828237E9, 0.0, 2024-04-06 23:27:42.682
88.0, -5665.8542949979665, -25581.616232587843, -187500.02235174447, -187500.02235174447, 187500.0, 187500.0, 187500.0, -187500.02235174447, -0.07200000000000001, 0.762, 0.62, 192.0, 253.0, 192.0, 23.0, 208.0, 19.0, 96.0, 0.0, 0.0, 0.0, 1.7124604626828427E9, 0.0, 2024-04-06 23:27:42.682
89.0, -5679.555914349069, -28161.43222587493, -187500.02235174447, -187500.02235174447, 187500.0, 187500.0, 187500.0, -187500.02235174447, -0.07200000000000001, 0.762, 0.62, 192.0, 0.0, 0.0, 0.0, 0.0, 0.0, 0.0, 0.0, 0.0, 0.0, 1.71246046268286E9, 0.0, 2024-04-06 23:27:42.682
90.0, -5399.399149346251, -678.2860372407481, -187500.02235174447, -187500.02235174447, 187500.0, 187500.0, 187500.0, -187500.02235174447, -0.07200000000000001, 0.762, 0.62, 192.0, 0.0, 0.0, 0.0, 0.0, 0.0, 0.0, 0.0, 0.0, 0.0, 1.7124604626828744E9, 0.0, 2024-04-06 23:27:42.682
91.0, -5241.41701953614, 6716.609801841951, -187500.02235174447, -187500.02235174447, 187500.0, 187500.0, 187500.0, -187500.02235174447, -0.07200000000000001, 0.762, 0.62, 192.0, 0.0, 0.0, 0.0, 0.0, 0.0, 0.0, 0.0, 0.0, 0.0, 1.712460462682892E9, 0.0, 2024-04-06 23:27:42.682
92.0, -5604.543459957059, -21321.150221961765, -187500.02235174447, -187500.02235174447, 187500.0, 187500.0, 187500.0, -187500.02235174447, -0.07200000000000001, 0.762, 0.62, 192.0, 0.0, 0.0, 0.0, 0.0, 0.0, 0.0, 0.0, 0.0, 0.0, 1.712460462682907E9, 0.0, 2024-04-06 23:27:42.682
93.0, -5739.27977553365, -30437.331549803206, -187500.02235174447, -187500.02235174447, 187500.0, 187500.0, 187500.0, -187500.02235174447, -0.07200000000000001, 0.762, 0.62, 192.0, 0.0, 0.0, 0.0, 0.0, 0.0, 0.0, 0.0, 0.0, 0.0, 1.7124604626829221E9, 0.0, 2024-04-06 23:27:42.682
94.0, -5459.212417508652, -5792.208706403817, -187500.02235174447, -187500.02235174447, 187500.0, 187500.0, 187500.0, -187500.02235174447, -0.07200000000000001, 0.762, 0.62, 192.0, 0.0, 0.0, 0.0, 0.0, 0.0, 0.0, 0.0, 0.0, 0.0, 1.712460462682938E9, 0.0, 2024-04-06 23:27:42.682
95.0, -5261.645348268193, 8858.957452649767, -187500.02235174447, -187500.02235174447, 187500.0, 187500.0, 187500.0, -187500.02235174447, -0.07200000000000001, 0.762, 0.62, 192.0, 0.0, 0.0, 0.0, 0.0, 0.0, 0.0, 0.0, 0.0, 0.0, 1.7124604626829553E9, 0.0, 2024-04-06 23:27:42.682
96.0, -5529.173377653763, -16210.02152085561, -187500.02235174447, -187500.02235174447, 187500.0, 187500.0, 187500.0, -187500.02235174447, -0.07200000000000001, 0.762, 0.62, 192.0, 0.0, 0.0, 0.0, 0.0, 0.0, 0.0, 0.0, 0.0, 0.0, 1.7124604626829703E9, 0.0, 2024-04-06 23:27:42.682
97.0, -5781.7257382542775, -31688.716314878027, -187500.02235174447, -187500.02235174447, 187500.0, 187500.0, 187500.0, -187500.02235174447, -0.07200000000000001, 0.762, 0.62, 192.0, 0.0, 0.0, 0.0, 0.0, 0.0, 0.0, 0.0, 0.0, 0.0, 1.7124604626829853E9, 0.0, 2024-04-06 23:27:42.682
98.0, -5517.326953092451, -11288.413260986003, -187500.02235174447, -187500.02235174447, 187500.0, 187500.0, 187500.0, -187500.02235174447, -0.066, 0.762, 0.628, 192.0, 253.0, 240.0, 23.0, 208.0, 19.0, 160.0, 0.0, 0.0, 0.0, 1.7124604626830032E9, 0.0, 2024-04-06 23:27:42.683
99.0, -5292.691921316615, 9679.847619515374, -187500.02235174447, -187500.02235174447, 187500.0, 187500.0, 187500.0, -187500.02235174447, -0.066, 0.762, 0.628, 192.0, 0.0, 0.0, 0.0, 0.0, 0.0, 0.0, 0.0, 0.0, 0.0, 1.712460462683018E9, 0.0, 2024-04-06 23:27:42.683
100.0, -5451.165789504742, -10578.387746618719, -187500.02235174447, -187500.02235174447, 187500.0, 187500.0, 187500.0, -187500.02235174447, -0.066, 0.762, 0.628, 192.0, 0.0, 0.0, 0.0, 0.0, 0.0, 0.0, 0.0, 0.0, 0.0, 1.7124604626830316E9, 0.0, 2024-04-06 23:27:42.683
101.0, -5806.558526344124, -31633.50750607342, -187500.02235174447, -187500.02235174447, 187500.0, 187500.0, 187500.0, -187500.02235174447, -0.066, 0.762, 0.628, 192.0, 0.0, 0.0, 0.0, 0.0, 0.0, 0.0, 0.0, 0.0, 0.0, 1.7124604626830463E9, 0.0, 2024-04-06 23:27:42.683
102.0, -5578.950712555732, -16515.79338500421, -187500.02235174447, -187500.02235174447, 187500.0, 187500.0, 187500.0, -187500.02235174447, -0.066, 0.762, 0.628, 192.0, 0.0, 0.0, 0.0, 0.0, 0.0, 0.0, 0.0, 0.0, 0.0, 1.7124604626830583E9, 0.0, 2024-04-06 23:27:42.683
103.0, -5333.305040991908, 8924.693933092825, -187500.02235174447, -187500.02235174447, 187500.0, 187500.0, 187500.0, -187500.02235174447, -0.066, 0.762, 0.628, 192.0, 0.0, 0.0, 0.0, 0.0, 0.0, 0.0, 0.0, 0.0, 0.0, 1.71246046268307E9, 0.0, 2024-04-06 23:27:42.683
104.0, -5385.764585228513, -5110.100520861211, -187500.02235174447, -187500.02235174447, 187500.0, 187500.0, 187500.0, -187500.02235174447, -0.066, 0.762, 0.628, 192.0, 0.0, 0.0, 0.0, 0.0, 0.0, 0.0, 0.0, 0.0, 0.0, 1.7124604626830816E9, 0.0, 2024-04-06 23:27:42.683
105.0, -5810.090101968062, -30699.02577388594, -187500.02235174447, -187500.02235174447, 187500.0, 187500.0, 187500.0, -187500.02235174447, -0.066, 0.762, 0.628, 192.0, 0.0, 0.0, 0.0, 0.0, 0.0, 0.0, 0.0, 0.0, 0.0, 1.7124604626830935E9, 0.0, 2024-04-06 23:27:42.683
106.0, -5644.441323809782, -21595.003795028188, -187500.02235174447, -187500.02235174447, 187500.0, 187500.0, 187500.0, -187500.02235174447, -0.066, 0.762, 0.628, 192.0, 0.0, 0.0, 0.0, 0.0, 0.0, 0.0, 0.0, 0.0, 0.0, 1.7124604626831088E9, 0.0, 2024-04-06 23:27:42.683
107.0, -5382.009492160022, 6621.301963484521, -187500.02235174447, -187500.02235174447, 187500.0, 187500.0, 187500.0, -187500.02235174447, -0.066, 0.762, 0.628, 192.0, 0.0, 0.0, 0.0, 0.0, 0.0, 0.0, 0.0, 0.0, 0.0, 1.712460462683124E9, 0.0, 2024-04-06 23:27:42.683
108.0, -5340.211730028597, -76.80059394843506, -187500.02235174447, -187500.02235174447, 187500.0, 187500.0, 187500.0, -187500.02235174447, -0.068, 0.758, 0.624, 192.0, 253.0, 224.0, 23.0, 176.0, 19.0, 128.0, 0.0, 0.0, 0.0, 1.7124604626831453E9, 0.0, 2024-04-06 23:27:42.683
109.0, -5789.459441835814, -28479.743418662958, -187500.02235174447, -187500.02235174447, 187500.0, 187500.0, 187500.0, -187500.02235174447, -0.068, 0.758, 0.624, 192.0, 0.0, 0.0, 0.0, 0.0, 0.0, 0.0, 0.0, 0.0, 0.0, 1.7124604626831572E9, 0.0, 2024-04-06 23:27:42.683
110.0, -5713.307048476583, -25759.55847019654, -187500.02235174447, -187500.02235174447, 187500.0, 187500.0, 187500.0, -187500.02235174447, -0.068, 0.758, 0.624, 192.0, 0.0, 0.0, 0.0, 0.0, 0.0, 0.0, 0.0, 0.0, 0.0, 1.712460462683169E9, 0.0, 2024-04-06 23:27:42.683
111.0, -5436.435989908694, 3004.9014693381155, -187500.02235174447, -187500.02235174447, 187500.0, 187500.0, 187500.0, -187500.02235174447, -0.068, 0.758, 0.624, 192.0, 0.0, 0.0, 0.0, 0.0, 0.0, 0.0, 0.0, 0.0, 0.0, 1.7124604626831808E9, 0.0, 2024-04-06 23:27:42.683
112.0, -5321.145692008221, 4065.648205953623, -187500.02235174447, -187500.02235174447, 187500.0, 187500.0, 187500.0, -187500.02235174447, -0.068, 0.758, 0.624, 192.0, 0.0, 0.0, 0.0, 0.0, 0.0, 0.0, 0.0, 0.0, 0.0, 1.7124604626831925E9, 0.0, 2024-04-06 23:27:42.683
113.0, -5743.303089535605, -25130.245105057373, -187500.02235174447, -187500.02235174447, 187500.0, 187500.0, 187500.0, -187500.02235174447, -0.068, 0.758, 0.624, 192.0, 0.0, 0.0, 0.0, 0.0, 0.0, 0.0, 0.0, 0.0, 0.0, 1.7124604626832044E9, 0.0, 2024-04-06 23:27:42.683
114.0, -5779.535267297658, -29003.601253461988, -187500.02235174447, -187500.02235174447, 187500.0, 187500.0, 187500.0, -187500.02235174447, -0.068, 0.758, 0.624, 192.0, 0.0, 0.0, 0.0, 0.0, 0.0, 0.0, 0.0, 0.0, 0.0, 1.7124604626832216E9, 0.0, 2024-04-06 23:27:42.683
115.0, -5494.259952814574, -1648.083525667611, -187500.02235174447, -187500.02235174447, 187500.0, 187500.0, 187500.0, -187500.02235174447, -0.068, 0.758, 0.624, 192.0, 0.0, 0.0, 0.0, 0.0, 0.0, 0.0, 0.0, 0.0, 0.0, 1.7124604626832335E9, 0.0, 2024-04-06 23:27:42.683
116.0, -5325.571337410372, 7278.4208987260945, -187500.02235174447, -187500.02235174447, 187500.0, 187500.0, 187500.0, -187500.02235174447, -0.068, 0.758, 0.624, 192.0, 0.0, 0.0, 0.0, 0.0, 0.0, 0.0, 0.0, 0.0, 0.0, 1.7124604626832452E9, 0.0, 2024-04-06 23:27:42.683
117.0, -5678.103050959475, -20630.23544910377, -187500.02235174447, -187500.02235174447, 187500.0, 187500.0, 187500.0, -187500.02235174447, -0.068, 0.758, 0.624, 192.0, 0.0, 0.0, 0.0, 0.0, 0.0, 0.0, 0.0, 0.0, 0.0, 1.712460462683257E9, 0.0, 2024-04-06 23:27:42.683
118.0, -5837.806265092643, -31130.816773273564, -187500.02235174447, -187500.02235174447, 187500.0, 187500.0, 187500.0, -187500.02235174447, -0.066, 0.76, 0.632, 192.0, 253.0, 240.0, 23.0, 192.0, 19.0, 192.0, 0.0, 0.0, 0.0, 1.712460462683269E9, 0.0, 2024-04-06 23:27:42.683
119.0, -5554.944939010732, -6998.085319767633, -187500.02235174447, -187500.02235174447, 187500.0, 187500.0, 187500.0, -187500.02235174447, -0.066, 0.76, 0.632, 192.0, 0.0, 0.0, 0.0, 0.0, 0.0, 0.0, 0.0, 0.0, 0.0, 1.7124604626832807E9, 0.0, 2024-04-06 23:27:42.683
120.0, -5348.34776501033, 9110.861612661078, -187500.02235174447, -187500.02235174447, 187500.0, 187500.0, 187500.0, -187500.02235174447, -0.066, 0.76, 0.632, 192.0, 0.0, 0.0, 0.0, 0.0, 0.0, 0.0, 0.0, 0.0, 0.0, 1.7124604626832955E9, 0.0, 2024-04-06 23:27:42.683
121.0, -5600.877773866388, -15407.929171076916, -187500.02235174447, -187500.02235174447, 187500.0, 187500.0, 187500.0, -187500.02235174447, -0.066, 0.76, 0.632, 192.0, 0.0, 0.0, 0.0, 0.0, 0.0, 0.0, 0.0, 0.0, 0.0, 1.7124604631615193E9, 0.0, 2024-04-06 23:27:43.161
122.0, -5878.888771401497, -32091.226529029198, -187500.02235174447, -187500.02235174447, 187500.0, 187500.0, 187500.0, -187500.02235174447, -0.066, 0.76, 0.632, 192.0, 0.0, 0.0, 0.0, 0.0, 0.0, 0.0, 0.0, 0.0, 0.0, 1.7124604631615665E9, 0.0, 2024-04-06 23:27:43.161
123.0, -5615.361704273428, -12491.361795826173, -187500.02235174447, -187500.02235174447, 187500.0, 187500.0, 187500.0, -187500.02235174447, -0.066, 0.76, 0.632, 192.0, 0.0, 0.0, 0.0, 0.0, 0.0, 0.0, 0.0, 0.0, 0.0, 1.712460463161578E9, 0.0, 2024-04-06 23:27:43.161
124.0, -5381.964788671111, 9598.04023480895, -187500.02235174447, -187500.02235174447, 187500.0, 187500.0, 187500.0, -187500.02235174447, -0.066, 0.76, 0.632, 192.0, 0.0, 0.0, 0.0, 0.0, 0.0, 0.0, 0.0, 0.0, 0.0, 1.7124604631615958E9, 0.0, 2024-04-06 23:27:43.161
125.0, -5521.573784538959, -9735.615221931366, -187500.02235174447, -187500.02235174447, 187500.0, 187500.0, 187500.0, -187500.02235174447, -0.066, 0.76, 0.632, 192.0, 0.0, 0.0, 0.0, 0.0, 0.0, 0.0, 0.0, 0.0, 0.0, 1.7124604631616404E9, 0.0, 2024-04-06 23:27:43.161
126.0, -5895.563172765157, -31852.39813952424, -187500.02235174447, -187500.02235174447, 187500.0, 187500.0, 187500.0, -187500.02235174447, -0.066, 0.76, 0.632, 192.0, 0.0, 0.0, 0.0, 0.0, 0.0, 0.0, 0.0, 0.0, 0.0, 1.7124604631616497E9, 0.0, 2024-04-06 23:27:43.161
127.0, -5673.722109046234, -17725.514498414337, -187500.02235174447, -187500.02235174447, 187500.0, 187500.0, 187500.0, -187500.02235174447, -0.066, 0.76, 0.632, 192.0, 0.0, 0.0, 0.0, 0.0, 0.0, 0.0, 0.0, 0.0, 0.0, 1.7124604631616583E9, 0.0, 2024-04-06 23:27:43.161
128.0, -5420.923879256711, 8650.326269903931, -187500.02235174447, -187500.02235174447, 187500.0, 187500.0, 187500.0, -187500.02235174447, -0.066, 0.758, 0.628, 192.0, 253.0, 240.0, 23.0, 176.0, 19.0, 160.0, 0.0, 0.0, 0.0, 1.712460463161664E9, 0.0, 2024-04-06 23:27:43.161
129.0, -5453.691536628192, -4149.91428255013, -187500.02235174447, -187500.02235174447, 187500.0, 187500.0, 187500.0, -187500.02235174447, -0.066, 0.758, 0.628, 192.0, 0.0, 0.0, 0.0, 0.0, 0.0, 0.0, 0.0, 0.0, 0.0, 1.7124604631616695E9, 0.0, 2024-04-06 23:27:43.161
130.0, -5890.109347118062, -30596.67713602509, -187500.02235174447, -187500.02235174447, 187500.0, 187500.0, 187500.0, -187500.02235174447, -0.066, 0.758, 0.628, 192.0, 0.0, 0.0, 0.0, 0.0, 0.0, 0.0, 0.0, 0.0, 0.0, 1.712460463161675E9, 0.0, 2024-04-06 23:27:43.161
131.0, -5735.949365609809, -22626.648560362883, -187500.02235174447, -187500.02235174447, 187500.0, 187500.0, 187500.0, -187500.02235174447, -0.066, 0.758, 0.628, 192.0, 0.0, 0.0, 0.0, 0.0, 0.0, 0.0, 0.0, 0.0, 0.0, 1.7124604631616805E9, 0.0, 2024-04-06 23:27:43.161
132.0, -5466.677900156725, 6107.882393346119, -187500.02235174447, -187500.02235174447, 187500.0, 187500.0, 187500.0, -187500.02235174447, -0.066, 0.758, 0.628, 192.0, 0.0, 0.0, 0.0, 0.0, 0.0, 0.0, 0.0, 0.0, 0.0, 1.712460463161686E9, 0.0, 2024-04-06 23:27:43.161
133.0, -5406.797576760957, 853.8813416816404, -187500.02235174447, -187500.02235174447, 187500.0, 187500.0, 187500.0, -187500.02235174447, -0.066, 0.758, 0.628, 192.0, 0.0, 0.0, 0.0, 0.0, 0.0, 0.0, 0.0, 0.0, 0.0, 1.7124604631616945E9, 0.0, 2024-04-06 23:27:43.161
134.0, -5856.358212990548, -28033.848468524036, -187500.02235174447, -187500.02235174447, 187500.0, 187500.0, 187500.0, -187500.02235174447, -0.066, 0.758, 0.628, 192.0, 0.0, 0.0, 0.0, 0.0, 0.0, 0.0, 0.0, 0.0, 0.0, 1.7124604631617002E9, 0.0, 2024-04-06 23:27:43.161
135.0, -5797.975456473286, -26534.73931965105, -187500.02235174447, -187500.02235174447, 187500.0, 187500.0, 187500.0, -187500.02235174447, -0.066, 0.758, 0.628, 192.0, 0.0, 0.0, 0.0, 0.0, 0.0, 0.0, 0.0, 0.0, 0.0, 1.7124604631617088E9, 0.0, 2024-04-06 23:27:43.161
136.0, -5515.650572258302, 2308.801091766488, -187500.02235174447, -187500.02235174447, 187500.0, 187500.0, 187500.0, -187500.02235174447, -0.066, 0.758, 0.628, 192.0, 0.0, 0.0, 0.0, 0.0, 0.0, 0.0, 0.0, 0.0, 0.0, 1.7124604631617143E9, 0.0, 2024-04-06 23:27:43.161
137.0, -5386.189268373164, 4971.340891282665, -187500.02235174447, -187500.02235174447, 187500.0, 187500.0, 187500.0, -187500.02235174447, -0.066, 0.758, 0.628, 192.0, 0.0, 0.0, 0.0, 0.0, 0.0, 0.0, 0.0, 0.0, 0.0, 1.7124604631617198E9, 0.0, 2024-04-06 23:27:43.161
138.0, -5798.802471018133, -24355.377180025243, -187500.02235174447, -187500.02235174447, 187500.0, 187500.0, 187500.0, -187500.02235174447, -0.07, 0.762, 0.634, 192.0, 253.0, 208.0, 23.0, 208.0, 19.0, 208.0, 0.0, 0.0, 0.0, 1.712460463161726E9, 0.0, 2024-04-06 23:27:43.161
139.0, -5856.313509501638, -29577.66110630764, -187500.02235174447, -187500.02235174447, 187500.0, 187500.0, 187500.0, -187500.02235174447, -0.07, 0.762, 0.634, 192.0, 0.0, 0.0, 0.0, 0.0, 0.0, 0.0, 0.0, 0.0, 0.0, 1.712460463161733E9, 0.0, 2024-04-06 23:27:43.161
140.0, -5567.059584505509, -2607.42039768939, -187500.02235174447, -187500.02235174447, 187500.0, 187500.0, 187500.0, -187500.02235174447, -0.07, 0.762, 0.634, 192.0, 0.0, 0.0, 0.0, 0.0, 0.0, 0.0, 0.0, 0.0, 0.0, 1.7124604631617415E9, 0.0, 2024-04-06 23:27:43.161
141.0, -5387.284503851474, 7809.006608606173, -187500.02235174447, -187500.02235174447, 187500.0, 187500.0, 187500.0, -187500.02235174447, -0.07, 0.762, 0.634, 192.0, 0.0, 0.0, 0.0, 0.0, 0.0, 0.0, 0.0, 0.0, 0.0, 1.7124604631617472E9, 0.0, 2024-04-06 23:27:43.161
142.0, -5719.945516579809, -19668.03755379171, -187500.02235174447, -187500.02235174447, 187500.0, 187500.0, 187500.0, -187500.02235174447, -0.07, 0.762, 0.634, 192.0, 0.0, 0.0, 0.0, 0.0, 0.0, 0.0, 0.0, 0.0, 0.0, 1.7124604631617525E9, 0.0, 2024-04-06 23:27:43.161
143.0, -5901.955771679374, -31403.575110861675, -187500.02235174447, -187500.02235174447, 187500.0, 187500.0, 187500.0, -187500.02235174447, -0.07, 0.762, 0.634, 192.0, 0.0, 0.0, 0.0, 0.0, 0.0, 0.0, 0.0, 0.0, 0.0, 1.712460463161758E9, 0.0, 2024-04-06 23:27:43.161
144.0, -5618.848576408455, -7966.809924460641, -187500.02235174447, -187500.02235174447, 187500.0, 187500.0, 187500.0, -187500.02235174447, -0.07, 0.762, 0.634, 192.0, 0.0, 0.0, 0.0, 0.0, 0.0, 0.0, 0.0, 0.0, 0.0, 1.7124604631617637E9, 0.0, 2024-04-06 23:27:43.161
145.0, -5404.160070915231, 9476.312634505348, -187500.02235174447, -187500.02235174447, 187500.0, 187500.0, 187500.0, -187500.02235174447, -0.07, 0.762, 0.634, 192.0, 0.0, 0.0, 0.0, 0.0, 0.0, 0.0, 0.0, 0.0, 0.0, 1.7124604631617699E9, 0.0, 2024-04-06 23:27:43.161
146.0, -5632.5725475040135, -14212.468470629272, -187500.02235174447, -187500.02235174447, 187500.0, 187500.0, 187500.0, -187500.02235174447, -0.07, 0.762, 0.634, 192.0, 0.0, 0.0, 0.0, 0.0, 0.0, 0.0, 0.0, 0.0, 0.0, 1.7124604631617754E9, 0.0, 2024-04-06 23:27:43.161
147.0, -5929.895452248508, -32043.28203717256, -187500.02235174447, -187500.02235174447, 187500.0, 187500.0, 187500.0, -187500.02235174447, -0.07, 0.762, 0.634, 192.0, 0.0, 0.0, 0.0, 0.0, 0.0, 0.0, 0.0, 0.0, 0.0, 1.712460463161784E9, 0.0, 2024-04-06 23:27:43.161
148.0, -5670.235236911206, -13397.300350344223, -187500.02235174447, -187500.02235174447, 187500.0, 187500.0, 187500.0, -187500.02235174447, -0.068, 0.754, 0.624, 192.0, 253.0, 224.0, 23.0, 144.0, 19.0, 128.0, 0.0, 0.0, 0.0, 1.7124604631617897E9, 0.0, 2024-04-06 23:27:43.161
149.0, -5430.736295072591, 9633.311287559425, -187500.02235174447, -187500.02235174447, 187500.0, 187500.0, 187500.0, -187500.02235174447, -0.068, 0.754, 0.624, 192.0, 0.0, 0.0, 0.0, 0.0, 0.0, 0.0, 0.0, 0.0, 0.0, 1.712460463161795E9, 0.0, 2024-04-06 23:27:43.161
150.0, -5545.803075528512, -8551.688021622662, -187500.02235174447, -187500.02235174447, 187500.0, 187500.0, 187500.0, -187500.02235174447, -0.068, 0.754, 0.624, 192.0, 0.0, 0.0, 0.0, 0.0, 0.0, 0.0, 0.0, 0.0, 0.0, 1.7124604631618004E9, 0.0, 2024-04-06 23:27:43.161
151.0, -5930.901280748997, -31640.01186370991, -187500.02235174447, -187500.02235174447, 187500.0, 187500.0, 187500.0, -187500.02235174447, -0.068, 0.754, 0.624, 192.0, 0.0, 0.0, 0.0, 0.0, 0.0, 0.0, 0.0, 0.0, 0.0, 1.7124604631618059E9, 0.0, 2024-04-06 23:27:43.161
152.0, -5717.889156089921, -18670.83682666264, -187500.02235174447, -187500.02235174447, 187500.0, 187500.0, 187500.0, -187500.02235174447, -0.068, 0.754, 0.624, 192.0, 0.0, 0.0, 0.0, 0.0, 0.0, 0.0, 0.0, 0.0, 0.0, 1.712460463161811E9, 0.0, 2024-04-06 23:27:43.161
153.0, -5459.726507631124, 8272.671195587063, -187500.02235174447, -187500.02235174447, 187500.0, 187500.0, 187500.0, -187500.02235174447, -0.068, 0.754, 0.624, 192.0, 0.0, 0.0, 0.0, 0.0, 0.0, 0.0, 0.0, 0.0, 0.0, 1.7124604631618202E9, 0.0, 2024-04-06 23:27:43.161
154.0, -5469.874199613834, -3077.1423074176682, -187500.02235174447, -187500.02235174447, 187500.0, 187500.0, 187500.0, -187500.02235174447, -0.068, 0.754, 0.624, 192.0, 0.0, 0.0, 0.0, 0.0, 0.0, 0.0, 0.0, 0.0, 0.0, 1.7124604631618257E9, 0.0, 2024-04-06 23:27:43.161
155.0, -5908.2813153602265, -30072.1487488924, -187500.02235174447, -187500.02235174447, 187500.0, 187500.0, 187500.0, -187500.02235174447, -0.068, 0.754, 0.624, 192.0, 0.0, 0.0, 0.0, 0.0, 0.0, 0.0, 0.0, 0.0, 0.0, 1.7124604631618311E9, 0.0, 2024-04-06 23:27:43.161
156.0, -5769.52168578168, -23287.991975306508, -187500.02235174447, -187500.02235174447, 187500.0, 187500.0, 187500.0, -187500.02235174447, -0.068, 0.754, 0.624, 192.0, 0.0, 0.0, 0.0, 0.0, 0.0, 0.0, 0.0, 0.0, 0.0, 1.7124604631618376E9, 0.0, 2024-04-06 23:27:43.161
157.0, -5496.383368537828, 5444.572024890426, -187500.02235174447, -187500.02235174447, 187500.0, 187500.0, 187500.0, -187500.02235174447, -0.068, 0.754, 0.624, 192.0, 0.0, 0.0, 0.0, 0.0, 0.0, 0.0, 0.0, 0.0, 0.0, 1.7124604631618426E9, 0.0, 2024-04-06 23:27:43.161
158.0, -5419.828643778401, 1586.9515045823462, -187500.02235174447, -187500.02235174447, 187500.0, 187500.0, 187500.0, -187500.02235174447, -0.068, 0.754, 0.624, 192.0, 0.0, 0.0, 0.0, 0.0, 0.0, 0.0, 0.0, 0.0, 0.0, 1.7124604631618476E9, 0.0, 2024-04-06 23:27:43.161
159.0, -5859.599215936568, -27414.146353500648, -187500.02235174447, -187500.02235174447, 187500.0, 187500.0, 187500.0, -187500.02235174447, -0.068, 0.756, 0.618, 192.0, 253.0, 224.0, 23.0, 160.0, 19.0, 80.0, 0.0, 0.0, 0.0, 1.7124604631618528E9, 0.0, 2024-04-06 23:27:43.161
160.0, -5818.650820094445, -27148.115890993584, -187500.02235174447, -187500.02235174447, 187500.0, 187500.0, 187500.0, -187500.02235174447, -0.068, 0.756, 0.618, 192.0, 0.0, 0.0, 0.0, 0.0, 0.0, 0.0, 0.0, 0.0, 0.0, 1.7124604631618607E9, 0.0, 2024-04-06 23:27:43.161
161.0, -5533.777837011557, 1411.3114966525432, -187500.02235174447, -187500.02235174447, 187500.0, 187500.0, 187500.0, -187500.02235174447, -0.068, 0.756, 0.618, 192.0, 0.0, 0.0, 0.0, 0.0, 0.0, 0.0, 0.0, 0.0, 0.0, 1.7124604631618657E9, 0.0, 2024-04-06 23:27:43.161
162.0, -5391.464280064617, 5592.764090629112, -187500.02235174447, -187500.02235174447, 187500.0, 187500.0, 187500.0, -187500.02235174447, -0.068, 0.756, 0.618, 192.0, 0.0, 0.0, 0.0, 0.0, 0.0, 0.0, 0.0, 0.0, 0.0, 1.7124604631618707E9, 0.0, 2024-04-06 23:27:43.161
163.0, -5785.458479578314, -23400.644767361257, -187500.02235174447, -187500.02235174447, 187500.0, 187500.0, 187500.0, -187500.02235174447, -0.068, 0.756, 0.618, 192.0, 0.0, 0.0, 0.0, 0.0, 0.0, 0.0, 0.0, 0.0, 0.0, 1.712460463161876E9, 0.0, 2024-04-06 23:27:43.161
164.0, -5864.538951461191, -29788.41570477673, -187500.02235174447, -187500.02235174447, 187500.0, 187500.0, 187500.0, -187500.02235174447, -0.068, 0.756, 0.618, 192.0, 0.0, 0.0, 0.0, 0.0, 0.0, 0.0, 0.0, 0.0, 0.0, 1.7124604631618812E9, 0.0, 2024-04-06 23:27:43.161
165.0, -5575.463840420704, -3543.7573246666584, -187500.02235174447, -187500.02235174447, 187500.0, 187500.0, 187500.0, -187500.02235174447, -0.068, 0.756, 0.618, 192.0, 0.0, 0.0, 0.0, 0.0, 0.0, 0.0, 0.0, 0.0, 0.0, 1.7124604631618862E9, 0.0, 2024-04-06 23:27:43.161
166.0, -5386.926875940189, 8164.7122698679295, -187500.02235174447, -187500.02235174447, 187500.0, 187500.0, 187500.0, -187500.02235174447, -0.068, 0.756, 0.618, 192.0, 0.0, 0.0, 0.0, 0.0, 0.0, 0.0, 0.0, 0.0, 0.0, 1.7124604631618943E9, 0.0, 2024-04-06 23:27:43.161
167.0, -5694.352769178483, -18558.206386352347, -187500.02235174447, -187500.02235174447, 187500.0, 187500.0, 187500.0, -187500.02235174447, -0.068, 0.756, 0.618, 192.0, 0.0, 0.0, 0.0, 0.0, 0.0, 0.0, 0.0, 0.0, 0.0, 1.7124604631618993E9, 0.0, 2024-04-06 23:27:43.161
168.0, -5893.4844605308135, -31348.120432868058, -187500.02235174447, -187500.02235174447, 187500.0, 187500.0, 187500.0, -187500.02235174447, -0.068, 0.756, 0.618, 192.0, 0.0, 0.0, 0.0, 0.0, 0.0, 0.0, 0.0, 0.0, 0.0, 1.7124604631619043E9, 0.0, 2024-04-06 23:27:43.161
169.0, -5614.132358328386, -8954.600567174026, -187500.02235174447, -187500.02235174447, 187500.0, 187500.0, 187500.0, -187500.02235174447, -0.07, 0.76, 0.61, 192.0, 253.0, 208.0, 23.0, 192.0, 19.0, 16.0, 0.0, 0.0, 0.0, 1.7124604631619108E9, 0.0, 2024-04-06 23:27:43.161
170.0, -5393.945323699156, 9498.664378960655, -187500.02235174447, -187500.02235174447, 187500.0, 187500.0, 187500.0, -187500.02235174447, -0.07, 0.76, 0.61, 192.0, 0.0, 0.0, 0.0, 0.0, 0.0, 0.0, 0.0, 0.0, 0.0, 1.712460463161916E9, 0.0, 2024-04-06 23:27:43.161
171.0, -5591.378282472883, -12985.04477561054, -187500.02235174447, -187500.02235174447, 187500.0, 187500.0, 187500.0, -187500.02235174447, -0.07, 0.76, 0.61, 192.0, 0.0, 0.0, 0.0, 0.0, 0.0, 0.0, 0.0, 0.0, 0.0, 1.7124604631619208E9, 0.0, 2024-04-06 23:27:43.161
172.0, -5898.446547799891, -31751.725882497536, -187500.02235174447, -187500.02235174447, 187500.0, 187500.0, 187500.0, -187500.02235174447, -0.07, 0.76, 0.61, 192.0, 0.0, 0.0, 0.0, 0.0, 0.0, 0.0, 0.0, 0.0, 0.0, 1.712460463161926E9, 0.0, 2024-04-06 23:27:43.161
173.0, -5647.3023471000615, -14409.23087706934, -187500.02235174447, -187500.02235174447, 187500.0, 187500.0, 187500.0, -187500.02235174447, -0.07, 0.76, 0.61, 192.0, 0.0, 0.0, 0.0, 0.0, 0.0, 0.0, 0.0, 0.0, 0.0, 1.7124604631619337E9, 0.0, 2024-04-06 23:27:43.161
174.0, -5404.785919759979, 9156.816799261189, -187500.02235174447, -187500.02235174447, 187500.0, 187500.0, 187500.0, -187500.02235174447, -0.07, 0.76, 0.61, 192.0, 0.0, 0.0, 0.0, 0.0, 0.0, 0.0, 0.0, 0.0, 0.0, 1.712460463161939E9, 0.0, 2024-04-06 23:27:43.161
175.0, -5490.37074927935, -7491.231857685073, -187500.02235174447, -187500.02235174447, 187500.0, 187500.0, 187500.0, -187500.02235174447, -0.07, 0.76, 0.61, 192.0, 0.0, 0.0, 0.0, 0.0, 0.0, 0.0, 0.0, 0.0, 0.0, 1.7124604631619437E9, 0.0, 2024-04-06 23:27:43.161
176.0, -5874.418422510436, -31041.119222774414, -187500.02235174447, -187500.02235174447, 187500.0, 187500.0, 187500.0, -187500.02235174447, -0.07, 0.76, 0.61, 192.0, 0.0, 0.0, 0.0, 0.0, 0.0, 0.0, 0.0, 0.0, 0.0, 1.7124604631619487E9, 0.0, 2024-04-06 23:27:43.161
177.0, -5674.50442010217, -19512.87174378297, -187500.02235174447, -187500.02235174447, 187500.0, 187500.0, 187500.0, -187500.02235174447, -0.07, 0.76, 0.61, 192.0, 0.0, 0.0, 0.0, 0.0, 0.0, 0.0, 0.0, 0.0, 0.0, 1.7124604631619537E9, 0.0, 2024-04-06 23:27:43.161
178.0, -5415.023018720511, 7230.968145247477, -187500.02235174447, -187500.02235174447, 187500.0, 187500.0, 187500.0, -187500.02235174447, -0.07, 0.76, 0.61, 192.0, 0.0, 0.0, 0.0, 0.0, 0.0, 0.0, 0.0, 0.0, 0.0, 1.7124604631619587E9, 0.0, 2024-04-06 23:27:43.161
179.0, -5396.739291756069, -2391.457842762213, -187500.02235174447, -187500.02235174447, 187500.0, 187500.0, 187500.0, -187500.02235174447, -0.066, 0.756, 0.622, 192.0, 253.0, 240.0, 23.0, 160.0, 19.0, 112.0, 0.0, 0.0, 0.0, 1.7124604631619666E9, 0.0, 2024-04-06 23:27:43.161
180.0, -5806.983209488775, -28923.023214700606, -187500.02235174447, -187500.02235174447, 187500.0, 187500.0, 187500.0, -187500.02235174447, -0.066, 0.756, 0.622, 192.0, 0.0, 0.0, 0.0, 0.0, 0.0, 0.0, 0.0, 0.0, 0.0, 1.7124604631619716E9, 0.0, 2024-04-06 23:27:43.161
181.0, -5681.612274838958, -23533.12355674786, -187500.02235174447, -187500.02235174447, 187500.0, 187500.0, 187500.0, -187500.02235174447, -0.066, 0.756, 0.622, 192.0, 0.0, 0.0, 0.0, 0.0, 0.0, 0.0, 0.0, 0.0, 0.0, 1.7124604631619763E9, 0.0, 2024-04-06 23:27:43.161
182.0, -5409.50213784005, 3963.8583617041545, -187500.02235174447, -187500.02235174447, 187500.0, 187500.0, 187500.0, -187500.02235174447, -0.066, 0.756, 0.622, 192.0, 0.0, 0.0, 0.0, 0.0, 0.0, 0.0, 0.0, 0.0, 0.0, 1.7124604631619813E9, 0.0, 2024-04-06 23:27:43.161
183.0, -5306.57235462336, 1854.4348304790058, -187500.02235174447, -187500.02235174447, 187500.0, 187500.0, 187500.0, -187500.02235174447, -0.066, 0.756, 0.622, 192.0, 0.0, 0.0, 0.0, 0.0, 0.0, 0.0, 0.0, 0.0, 0.0, 1.7124604631619864E9, 0.0, 2024-04-06 23:27:43.161
184.0, -5684.182725451318, -25556.515223564533, -187500.02235174447, -187500.02235174447, 187500.0, 187500.0, 187500.0, -187500.02235174447, -0.066, 0.756, 0.622, 192.0, 0.0, 0.0, 0.0, 0.0, 0.0, 0.0, 0.0, 0.0, 0.0, 1.7124604631619914E9, 0.0, 2024-04-06 23:27:43.161
185.0, -5651.325661102016, -26438.448004537586, -187500.02235174447, -187500.02235174447, 187500.0, 187500.0, 187500.0, -187500.02235174447, -0.066, 0.756, 0.622, 192.0, 0.0, 0.0, 0.0, 0.0, 0.0, 0.0, 0.0, 0.0, 0.0, 1.7124604631619964E9, 0.0, 2024-04-06 23:27:43.161
186.0, -5373.962864156111, -391.06612099005235, -187500.02235174447, -187500.02235174447, 187500.0, 187500.0, 187500.0, -187500.02235174447, -0.066, 0.756, 0.622, 192.0, 0.0, 0.0, 0.0, 0.0, 0.0, 0.0, 0.0, 0.0, 0.0, 1.7124604631620042E9, 0.0, 2024-04-06 23:27:43.162
187.0, -5213.723208156015, 4792.348121684566, -187500.02235174447, -187500.02235174447, 187500.0, 187500.0, 187500.0, -187500.02235174447, -0.066, 0.756, 0.622, 192.0, 0.0, 0.0, 0.0, 0.0, 0.0, 0.0, 0.0, 0.0, 0.0, 1.7124604631620092E9, 0.0, 2024-04-06 23:27:43.162
188.0, -5515.09177864692, -21250.29519203844, -187500.02235174447, -187500.02235174447, 187500.0, 187500.0, 187500.0, -187500.02235174447, -0.066, 0.756, 0.622, 192.0, 0.0, 0.0, 0.0, 0.0, 0.0, 0.0, 0.0, 0.0, 0.0, 1.712460463162014E9, 0.0, 2024-04-06 23:27:43.162
189.0, -5580.96236955671, -28120.260312588252, -187500.02235174447, -187500.02235174447, 187500.0, 187500.0, 187500.0, -187500.02235174447, -0.07, 0.754, 0.618, 192.0, 253.0, 208.0, 23.0, 144.0, 19.0, 80.0, 0.0, 0.0, 0.0, 1.7124604631620193E9, 0.0, 2024-04-06 23:27:43.162
190.0, -5306.929982534645, -5395.107614410832, -187500.02235174447, -187500.02235174447, 187500.0, 187500.0, 187500.0, -187500.02235174447, -0.07, 0.754, 0.618, 192.0, 0.0, 0.0, 0.0, 0.0, 0.0, 0.0, 0.0, 0.0, 0.0, 1.712460463162024E9, 0.0, 2024-04-06 23:27:43.162
191.0, -5108.692360960527, 6186.448775106523, -187500.02235174447, -187500.02235174447, 187500.0, 187500.0, 187500.0, -187500.02235174447, -0.07, 0.754, 0.618, 192.0, 0.0, 0.0, 0.0, 0.0, 0.0, 0.0, 0.0, 0.0, 0.0, 1.7124604631620293E9, 0.0, 2024-04-06 23:27:43.162
192.0, -5298.413967897173, -16250.478178319716, -187500.02235174447, -187500.02235174447, 187500.0, 187500.0, 187500.0, -187500.02235174447, -0.07, 0.754, 0.618, 192.0, 0.0, 0.0, 0.0, 0.0, 0.0, 0.0, 0.0, 0.0, 0.0, 1.712460463162034E9, 0.0, 2024-04-06 23:27:43.162
193.0, -5444.08028651241, -28176.407894659984, -187500.02235174447, -187500.02235174447, 187500.0, 187500.0, 187500.0, -187500.02235174447, -0.07, 0.754, 0.618, 192.0, 0.0, 0.0, 0.0, 0.0, 0.0, 0.0, 0.0, 0.0, 0.0, 1.712460463162042E9, 0.0, 2024-04-06 23:27:43.162
194.0, -5189.069234021811, -10259.227187541388, -187500.02235174447, -187500.02235174447, 187500.0, 187500.0, 187500.0, -187500.02235174447, -0.07, 0.754, 0.618, 192.0, 0.0, 0.0, 0.0, 0.0, 0.0, 0.0, 0.0, 0.0, 0.0, 1.712460463162047E9, 0.0, 2024-04-06 23:27:43.162
195.0, -4969.955083126436, 5633.421913793316, -187500.02235174447, -187500.02235174447, 187500.0, 187500.0, 187500.0, -187500.02235174447, -0.07, 0.754, 0.618, 192.0, 0.0, 0.0, 0.0, 0.0, 0.0, 0.0, 0.0, 0.0, 0.0, 1.712460463162052E9, 0.0, 2024-04-06 23:27:43.162
196.0, -5032.763485045849, -11334.860185964131, -187500.02235174447, -187500.02235174447, 187500.0, 187500.0, 187500.0, -187500.02235174447, -0.07, 0.754, 0.618, 192.0, 0.0, 0.0, 0.0, 0.0, 0.0, 0.0, 0.0, 0.0, 0.0, 1.7124604631620567E9, 0.0, 2024-04-06 23:27:43.162
197.0, -5213.454987222551, -26675.75647541958, -187500.02235174447, -187500.02235174447, 187500.0, 187500.0, 187500.0, -187500.02235174447, -0.07, 0.754, 0.618, 192.0, 0.0, 0.0, 0.0, 0.0, 0.0, 0.0, 0.0, 0.0, 0.0, 1.7124604631620617E9, 0.0, 2024-04-06 23:27:43.162
198.0, -4994.340836327176, -14417.679836473446, -187500.02235174447, -187500.02235174447, 187500.0, 187500.0, 187500.0, -187500.02235174447, -0.07, 0.754, 0.618, 192.0, 0.0, 0.0, 0.0, 0.0, 0.0, 0.0, 0.0, 0.0, 0.0, 1.7124604631620667E9, 0.0, 2024-04-06 23:27:43.162
199.0, -4766.7106707943285, 2935.3875440821107, -187500.02235174447, -187500.02235174447, 187500.0, 187500.0, 187500.0, -187500.02235174447, -0.07200000000000001, 0.756, 0.62, 192.0, 253.0, 192.0, 23.0, 160.0, 19.0, 96.0, 0.0, 0.0, 0.0, 1.7124604631620746E9, 0.0, 2024-04-06 23:27:43.162
200.0, -4705.399835753422, -7384.926961055632, -187500.02235174447, -187500.02235174447, 187500.0, 187500.0, 187500.0, -187500.02235174447, -0.07200000000000001, 0.756, 0.62, 192.0, 0.0, 0.0, 0.0, 0.0, 0.0, 0.0, 0.0, 0.0, 0.0, 1.7124604631620796E9, 0.0, 2024-04-06 23:27:43.162
201.0, -4841.633718208518, -23131.19448795253, -187500.02235174447, -187500.02235174447, 187500.0, 187500.0, 187500.0, -187500.02235174447, -0.07200000000000001, 0.756, 0.62, 192.0, 0.0, 0.0, 0.0, 0.0, 0.0, 0.0, 0.0, 0.0, 0.0, 1.7124604631620843E9, 0.0, 2024-04-06 23:27:43.162
202.0, -4665.189047478324, -16165.809770323012, -187500.02235174447, -187500.02235174447, 187500.0, 187500.0, 187500.0, -187500.02235174447, -0.07200000000000001, 0.756, 0.62, 192.0, 0.0, 0.0, 0.0, 0.0, 0.0, 0.0, 0.0, 0.0, 0.0, 1.7124604631620893E9, 0.0, 2024-04-06 23:27:43.162
203.0, -4442.140989558815, -120.67706831420283, -187500.02235174447, -187500.02235174447, 187500.0, 187500.0, 187500.0, -187500.02235174447, -0.07200000000000001, 0.756, 0.62, 192.0, 0.0, 0.0, 0.0, 0.0, 0.0, 0.0, 0.0, 0.0, 0.0, 1.7124604631620944E9, 0.0, 2024-04-06 23:27:43.162
204.0, -4318.558194465422, -5116.694285475527, -187500.02235174447, -187500.02235174447, 187500.0, 187500.0, 187500.0, -187500.02235174447, -0.07200000000000001, 0.756, 0.62, 192.0, 0.0, 0.0, 0.0, 0.0, 0.0, 0.0, 0.0, 0.0, 0.0, 1.7124604631620991E9, 0.0, 2024-04-06 23:27:43.162
205.0, -4419.878652081329, -20500.93060742982, -187500.02235174447, -187500.02235174447, 187500.0, 187500.0, 187500.0, -187500.02235174447, -0.07200000000000001, 0.756, 0.62, 192.0, 0.0, 0.0, 0.0, 0.0, 0.0, 0.0, 0.0, 0.0, 0.0, 1.7124604631621041E9, 0.0, 2024-04-06 23:27:43.162
206.0, -4300.5650401789, -17621.265962274785, -187500.02235174447, -187500.02235174447, 187500.0, 187500.0, 187500.0, -187500.02235174447, -0.07200000000000001, 0.756, 0.62, 192.0, 0.0, 0.0, 0.0, 0.0, 0.0, 0.0, 0.0, 0.0, 0.0, 1.7124604631621122E9, 0.0, 2024-04-06 23:27:43.162
207.0, -4094.5937150232453, -3042.8323796787718, -187500.02235174447, -187500.02235174447, 187500.0, 187500.0, 187500.0, -187500.02235174447, -0.07200000000000001, 0.756, 0.62, 192.0, 0.0, 0.0, 0.0, 0.0, 0.0, 0.0, 0.0, 0.0, 0.0, 1.7124604631621172E9, 0.0, 2024-04-06 23:27:43.162
208.0, -3946.44635277347, -3936.164550324029, -187500.02235174447, -187500.02235174447, 187500.0, 187500.0, 187500.0, -187500.02235174447, -0.07200000000000001, 0.756, 0.62, 192.0, 0.0, 0.0, 0.0, 0.0, 0.0, 0.0, 0.0, 0.0, 0.0, 1.712460463162122E9, 0.0, 2024-04-06 23:27:43.162
209.0, -4007.3995599030927, -18348.122340216916, -187500.02235174447, -187500.02235174447, 187500.0, 187500.0, 187500.0, -187500.02235174447, -0.07200000000000001, 0.752, 0.614, 192.0, 253.0, 192.0, 23.0, 128.0, 19.0, 48.0, 0.0, 0.0, 0.0, 1.7124604631621273E9, 0.0, 2024-04-06 23:27:43.162
210.0, -3940.4784370039033, -18836.619715287652, -187500.02235174447, -187500.02235174447, 187500.0, 187500.0, 187500.0, -187500.02235174447, -0.07200000000000001, 0.752, 0.614, 192.0, 0.0, 0.0, 0.0, 0.0, 0.0, 0.0, 0.0, 0.0, 0.0, 1.712460463162132E9, 0.0, 2024-04-06 23:27:43.162
211.0, -3745.526521864715, -5493.254124314085, -187500.02235174447, -187500.02235174447, 187500.0, 187500.0, 187500.0, -187500.02235174447, -0.07200000000000001, 0.752, 0.614, 192.0, 0.0, 0.0, 0.0, 0.0, 0.0, 0.0, 0.0, 0.0, 0.0, 1.712460463162137E9, 0.0, 2024-04-06 23:27:43.162
212.0, -3590.47247057825, -2676.2414188672806, -187500.02235174447, -187500.02235174447, 187500.0, 187500.0, 187500.0, -187500.02235174447, -0.07200000000000001, 0.752, 0.614, 192.0, 0.0, 0.0, 0.0, 0.0, 0.0, 0.0, 0.0, 0.0, 0.0, 1.712460463162145E9, 0.0, 2024-04-06 23:27:43.162
213.0, -3614.277078423152, -15697.898351895614, -187500.02235174447, -187500.02235174447, 187500.0, 187500.0, 187500.0, -187500.02235174447, -0.07200000000000001, 0.752, 0.614, 192.0, 0.0, 0.0, 0.0, 0.0, 0.0, 0.0, 0.0, 0.0, 0.0, 1.7124604631621497E9, 0.0, 2024-04-06 23:27:43.162
214.0, -3602.832985262035, -19343.177299878276, -187500.02235174447, -187500.02235174447, 187500.0, 187500.0, 187500.0, -187500.02235174447, -0.07200000000000001, 0.752, 0.614, 192.0, 0.0, 0.0, 0.0, 0.0, 0.0, 0.0, 0.0, 0.0, 0.0, 1.712460463162155E9, 0.0, 2024-04-06 23:27:43.162
215.0, -3434.7478669581255, -7855.766458006676, -187500.02235174447, -187500.02235174447, 187500.0, 187500.0, 187500.0, -187500.02235174447, -0.07200000000000001, 0.752, 0.614, 192.0, 0.0, 0.0, 0.0, 0.0, 0.0, 0.0, 0.0, 0.0, 0.0, 1.7124604631621597E9, 0.0, 2024-04-06 23:27:43.162
216.0, -3288.299237286954, -2098.9852665645203, -187500.02235174447, -187500.02235174447, 187500.0, 187500.0, 187500.0, -187500.02235174447, -0.07200000000000001, 0.752, 0.614, 192.0, 0.0, 0.0, 0.0, 0.0, 0.0, 0.0, 0.0, 0.0, 0.0, 1.7124604631621644E9, 0.0, 2024-04-06 23:27:43.162
217.0, -3288.3439407758647, -13681.212208415534, -187500.02235174447, -187500.02235174447, 187500.0, 187500.0, 187500.0, -187500.02235174447, -0.07200000000000001, 0.752, 0.614, 192.0, 0.0, 0.0, 0.0, 0.0, 0.0, 0.0, 0.0, 0.0, 0.0, 1.7124604631621697E9, 0.0, 2024-04-06 23:27:43.162
218.0, -3327.5041970615625, -20244.44433980517, -187500.02235174447, -187500.02235174447, 187500.0, 187500.0, 187500.0, -187500.02235174447, -0.07200000000000001, 0.752, 0.614, 192.0, 0.0, 0.0, 0.0, 0.0, 0.0, 0.0, 0.0, 0.0, 0.0, 1.7124604631621745E9, 0.0, 2024-04-06 23:27:43.162
219.0, -3177.3898812997204, -10271.610053969629, -187500.02235174447, -187500.02235174447, 187500.0, 187500.0, 187500.0, -187500.02235174447, -0.074, 0.76, 0.616, 192.0, 253.0, 176.0, 23.0, 192.0, 19.0, 64.0, 0.0, 0.0, 0.0, 1.7124604631621823E9, 0.0, 2024-04-06 23:27:43.162
220.0, -3033.1317225851685, -1567.8854665619692, -187500.02235174447, -187500.02235174447, 187500.0, 187500.0, 187500.0, -187500.02235174447, -0.074, 0.76, 0.616, 192.0, 0.0, 0.0, 0.0, 0.0, 0.0, 0.0, 0.0, 0.0, 0.0, 1.712460463162187E9, 0.0, 2024-04-06 23:27:43.162
221.0, -3001.0346175473474, -10839.009086967599, -187500.02235174447, -187500.02235174447, 187500.0, 187500.0, 187500.0, -187500.02235174447, -0.074, 0.76, 0.616, 192.0, 0.0, 0.0, 0.0, 0.0, 0.0, 0.0, 0.0, 0.0, 0.0, 1.712460463162192E9, 0.0, 2024-04-06 23:27:43.162
222.0, -3073.3872143491762, -19776.242348699852, -187500.02235174447, -187500.02235174447, 187500.0, 187500.0, 187500.0, -187500.02235174447, -0.074, 0.76, 0.616, 192.0, 0.0, 0.0, 0.0, 0.0, 0.0, 0.0, 0.0, 0.0, 0.0, 1.712460463162197E9, 0.0, 2024-04-06 23:27:43.162
223.0, -2957.0687362037584, -12355.887872682557, -187500.02235174447, -187500.02235174447, 187500.0, 187500.0, 187500.0, -187500.02235174447, -0.074, 0.76, 0.616, 192.0, 0.0, 0.0, 0.0, 0.0, 0.0, 0.0, 0.0, 0.0, 0.0, 1.712460463162202E9, 0.0, 2024-04-06 23:27:43.162
224.0, -2823.4500078499327, -2007.097245108753, -187500.02235174447, -187500.02235174447, 187500.0, 187500.0, 187500.0, -187500.02235174447, -0.074, 0.76, 0.616, 192.0, 0.0, 0.0, 0.0, 0.0, 0.0, 0.0, 0.0, 0.0, 0.0, 1.712460463162207E9, 0.0, 2024-04-06 23:27:43.162
225.0, -2767.838867645129, -8596.793841933471, -187500.02235174447, -187500.02235174447, 187500.0, 187500.0, 187500.0, -187500.02235174447, -0.074, 0.76, 0.616, 192.0, 0.0, 0.0, 0.0, 0.0, 0.0, 0.0, 0.0, 0.0, 0.0, 1.7124604631622148E9, 0.0, 2024-04-06 23:27:43.162
226.0, -2859.7492408453513, -19412.847687345467, -187500.02235174447, -187500.02235174447, 187500.0, 187500.0, 187500.0, -187500.02235174447, -0.074, 0.76, 0.616, 192.0, 0.0, 0.0, 0.0, 0.0, 0.0, 0.0, 0.0, 0.0, 0.0, 1.7124604631622195E9, 0.0, 2024-04-06 23:27:43.162
227.0, -2774.3208735371677, -14347.383600161505, -187500.02235174447, -187500.02235174447, 187500.0, 187500.0, 187500.0, -187500.02235174447, -0.074, 0.76, 0.616, 192.0, 0.0, 0.0, 0.0, 0.0, 0.0, 0.0, 0.0, 0.0, 0.0, 1.7124604631622248E9, 0.0, 2024-04-06 23:27:43.162
228.0, -2641.7526771727416, -2608.13565351196, -187500.02235174447, -187500.02235174447, 187500.0, 187500.0, 187500.0, -187500.02235174447, -0.074, 0.76, 0.616, 192.0, 0.0, 0.0, 0.0, 0.0, 0.0, 0.0, 0.0, 0.0, 0.0, 1.7124604631622298E9, 0.0, 2024-04-06 23:27:43.162
229.0, -2565.689690791332, -6055.355793876147, -187500.02235174447, -187500.02235174447, 187500.0, 187500.0, 187500.0, -187500.02235174447, -0.066, 0.764, 0.62, 192.0, 253.0, 240.0, 23.0, 224.0, 19.0, 96.0, 0.0, 0.0, 0.0, 1.7124604631622348E9, 0.0, 2024-04-06 23:27:43.162
230.0, -2653.8896744119734, -17779.33749906272, -187500.02235174447, -187500.02235174447, 187500.0, 187500.0, 187500.0, -187500.02235174447, -0.066, 0.764, 0.62, 192.0, 0.0, 0.0, 0.0, 0.0, 0.0, 0.0, 0.0, 0.0, 0.0, 1.7124604631622396E9, 0.0, 2024-04-06 23:27:43.162
231.0, -2612.4048367029236, -15660.414476444064, -187500.02235174447, -187500.02235174447, 187500.0, 187500.0, 187500.0, -187500.02235174447, -0.066, 0.764, 0.62, 192.0, 0.0, 0.0, 0.0, 0.0, 0.0, 0.0, 0.0, 0.0, 0.0, 1.7124604631622446E9, 0.0, 2024-04-06 23:27:43.162
232.0, -2492.420672466835, -3980.041024689797, -187500.02235174447, -187500.02235174447, 187500.0, 187500.0, 187500.0, -187500.02235174447, -0.066, 0.764, 0.62, 192.0, 0.0, 0.0, 0.0, 0.0, 0.0, 0.0, 0.0, 0.0, 0.0, 1.7124604631622524E9, 0.0, 2024-04-06 23:27:43.162
233.0, -2407.9757819146853, -4349.0683256469165, -187500.02235174447, -187500.02235174447, 187500.0, 187500.0, 187500.0, -187500.02235174447, -0.066, 0.764, 0.62, 192.0, 0.0, 0.0, 0.0, 0.0, 0.0, 0.0, 0.0, 0.0, 0.0, 1.7124604631622574E9, 0.0, 2024-04-06 23:27:43.162
234.0, -2484.888134585397, -16501.309454597173, -187500.02235174447, -187500.02235174447, 187500.0, 187500.0, 187500.0, -187500.02235174447, -0.066, 0.764, 0.62, 192.0, 0.0, 0.0, 0.0, 0.0, 0.0, 0.0, 0.0, 0.0, 0.0, 1.7124604631622624E9, 0.0, 2024-04-06 23:27:43.162
235.0, -2483.30116072907, -17187.776230308562, -187500.02235174447, -187500.02235174447, 187500.0, 187500.0, 187500.0, -187500.02235174447, -0.066, 0.764, 0.62, 192.0, 0.0, 0.0, 0.0, 0.0, 0.0, 0.0, 0.0, 0.0, 0.0, 1.7124604631622672E9, 0.0, 2024-04-06 23:27:43.162
236.0, -2362.557037181501, -5578.458974177715, -187500.02235174447, -187500.02235174447, 187500.0, 187500.0, 187500.0, -187500.02235174447, -0.066, 0.764, 0.62, 192.0, 0.0, 0.0, 0.0, 0.0, 0.0, 0.0, 0.0, 0.0, 0.0, 1.7124604631622722E9, 0.0, 2024-04-06 23:27:43.162
237.0, -2269.5290767585134, -2727.672782858942, -187500.02235174447, -187500.02235174447, 187500.0, 187500.0, 187500.0, -187500.02235174447, -0.066, 0.764, 0.62, 192.0, 0.0, 0.0, 0.0, 0.0, 0.0, 0.0, 0.0, 0.0, 0.0, 1.7124604631622772E9, 0.0, 2024-04-06 23:27:43.162
238.0, -2317.0712372149515, -14093.691300593771, -187500.02235174447, -187500.02235174447, 187500.0, 187500.0, 187500.0, -187500.02235174447, -0.066, 0.764, 0.62, 192.0, 0.0, 0.0, 0.0, 0.0, 0.0, 0.0, 0.0, 0.0, 0.0, 1.712460463162282E9, 0.0, 2024-04-06 23:27:43.162
239.0, -2357.37143246787, -17736.80212936427, -187500.02235174447, -187500.02235174447, 187500.0, 187500.0, 187500.0, -187500.02235174447, -0.066, 0.764, 0.62, 192.0, 0.0, 0.0, 0.0, 0.0, 0.0, 0.0, 0.0, 0.0, 0.0, 1.71246046316229E9, 0.0, 2024-04-06 23:27:43.162
240.0, -2254.7322219291, -7676.728984919666, -187500.02235174447, -187500.02235174447, 187500.0, 187500.0, 187500.0, -187500.02235174447, -0.056, 0.76, 0.624, 192.0, 254.0, 64.0, 23.0, 192.0, 19.0, 128.0, 0.0, 0.0, 0.0, 1.7124604631622949E9, 0.0, 2024-04-06 23:27:43.162
241.0, -2164.2970638629276, -2289.2880188570048, -187500.02235174447, -187500.02235174447, 187500.0, 187500.0, 187500.0, -187500.02235174447, -0.056, 0.76, 0.624, 192.0, 0.0, 0.0, 0.0, 0.0, 0.0, 0.0, 0.0, 0.0, 0.0, 1.7124604632682884E9, 0.0, 2024-04-06 23:27:43.268
242.0, -2186.4699943625924, -12462.259824545363, -187500.02235174447, -187500.02235174447, 187500.0, 187500.0, 187500.0, -187500.02235174447, -0.056, 0.76, 0.624, 192.0, 0.0, 0.0, 0.0, 0.0, 0.0, 0.0, 0.0, 0.0, 0.0, 1.7124604632683136E9, 0.0, 2024-04-06 23:27:43.268
243.0, -2262.220056321628, -18812.47983127592, -187500.02235174447, -187500.02235174447, 187500.0, 187500.0, 187500.0, -187500.02235174447, -0.056, 0.76, 0.624, 192.0, 0.0, 0.0, 0.0, 0.0, 0.0, 0.0, 0.0, 0.0, 0.0, 1.7124604632683249E9, 0.0, 2024-04-06 23:27:43.268
244.0, -2168.387433098249, -10008.708835686308, -187500.02235174447, -187500.02235174447, 187500.0, 187500.0, 187500.0, -187500.02235174447, -0.056, 0.76, 0.624, 192.0, 0.0, 0.0, 0.0, 0.0, 0.0, 0.0, 0.0, 0.0, 0.0, 1.7124604632683363E9, 0.0, 2024-04-06 23:27:43.268
245.0, -2072.2302284515176, -1893.5727350202485, -187500.02235174447, -187500.02235174447, 187500.0, 187500.0, 187500.0, -187500.02235174447, -0.056, 0.76, 0.624, 192.0, 0.0, 0.0, 0.0, 0.0, 0.0, 0.0, 0.0, 0.0, 0.0, 1.7124604632683492E9, 0.0, 2024-04-06 23:27:43.268
246.0, -2064.809449292356, -10044.963365192814, -187500.02235174447, -187500.02235174447, 187500.0, 187500.0, 187500.0, -187500.02235174447, -0.056, 0.76, 0.624, 192.0, 0.0, 0.0, 0.0, 0.0, 0.0, 0.0, 0.0, 0.0, 0.0, 1.7124604632683585E9, 0.0, 2024-04-06 23:27:43.268
247.0, -2163.6265115292686, -18626.55802089668, -187500.02235174447, -187500.02235174447, 187500.0, 187500.0, 187500.0, -187500.02235174447, -0.056, 0.76, 0.624, 192.0, 0.0, 0.0, 0.0, 0.0, 0.0, 0.0, 0.0, 0.0, 0.0, 1.712460463268368E9, 0.0, 2024-04-06 23:27:43.268
248.0, -2095.900725829688, -12189.322673001609, -187500.02235174447, -187500.02235174447, 187500.0, 187500.0, 187500.0, -187500.02235174447, -0.056, 0.76, 0.624, 192.0, 0.0, 0.0, 0.0, 0.0, 0.0, 0.0, 0.0, 0.0, 0.0, 1.7124604632683783E9, 0.0, 2024-04-06 23:27:43.268
249.0, -2003.029227617887, -2591.9529905263175, -187500.02235174447, -187500.02235174447, 187500.0, 187500.0, 187500.0, -187500.02235174447, -0.056, 0.76, 0.624, 192.0, 0.0, 0.0, 0.0, 0.0, 0.0, 0.0, 0.0, 0.0, 0.0, 1.712460463268388E9, 0.0, 2024-04-06 23:27:43.268
250.0, -1972.1391167806528, -8285.92578004906, -187500.02235174447, -187500.02235174447, 187500.0, 187500.0, 187500.0, -187500.02235174447, -0.058, 0.766, 0.624, 192.0, 254.0, 48.0, 23.0, 240.0, 19.0, 128.0, 0.0, 0.0, 0.0, 1.7124604632684E9, 0.0, 2024-04-06 23:27:43.268
251.0, -2082.087347756308, -18567.169435878925, -187500.02235174447, -187500.02235174447, 187500.0, 187500.0, 187500.0, -187500.02235174447, -0.058, 0.766, 0.624, 192.0, 0.0, 0.0, 0.0, 0.0, 0.0, 0.0, 0.0, 0.0, 0.0, 1.7124604632684093E9, 0.0, 2024-04-06 23:27:43.268
252.0, -2040.7142687695348, -14372.819885351646, -187500.02235174447, -187500.02235174447, 187500.0, 187500.0, 187500.0, -187500.02235174447, -0.058, 0.766, 0.624, 192.0, 0.0, 0.0, 0.0, 0.0, 0.0, 0.0, 0.0, 0.0, 0.0, 1.712460463268422E9, 0.0, 2024-04-06 23:27:43.268
253.0, -1944.869988545178, -3523.9760308237114, -187500.02235174447, -187500.02235174447, 187500.0, 187500.0, 187500.0, -187500.02235174447, -0.058, 0.766, 0.624, 192.0, 0.0, 0.0, 0.0, 0.0, 0.0, 0.0, 0.0, 0.0, 0.0, 1.7124604632684307E9, 0.0, 2024-04-06 23:27:43.268
254.0, -1893.9974181648993, -6319.106378448771, -187500.02235174447, -187500.02235174447, 187500.0, 187500.0, 187500.0, -187500.02235174447, -0.058, 0.766, 0.624, 192.0, 0.0, 0.0, 0.0, 0.0, 0.0, 0.0, 0.0, 0.0, 0.0, 1.7124604632684436E9, 0.0, 2024-04-06 23:27:43.268
255.0, -1995.9213728810994, -17414.355863852008, -187500.02235174447, -187500.02235174447, 187500.0, 187500.0, 187500.0, -187500.02235174447, -0.058, 0.766, 0.624, 192.0, 0.0, 0.0, 0.0, 0.0, 0.0, 0.0, 0.0, 0.0, 0.0, 1.7124604632684553E9, 0.0, 2024-04-06 23:27:43.268
0.0, -1989.9311053670772, -15935.139767544242, -187500.02235174447, -187500.02235174447, 187500.0, 187500.0, 187500.0, -187500.02235174447, -0.058, 0.766, 0.624, 192.0, 0.0, 0.0, 0.0, 0.0, 0.0, 0.0, 0.0, 0.0, 0.0, 1.712460463268464E9, 0.0, 2024-04-06 23:27:43.268
1.0, -1899.7194647454578, -5076.774069878348, -187500.02235174447, -187500.02235174447, 187500.0, 187500.0, 187500.0, -187500.02235174447, -0.058, 0.766, 0.624, 192.0, 0.0, 0.0, 0.0, 0.0, 0.0, 0.0, 0.0, 0.0, 0.0, 1.7124604632684731E9, 0.0, 2024-04-06 23:27:43.268
2.0, -1837.559263415249, -4937.5227019217855, -187500.02235174447, -187500.02235174447, 187500.0, 187500.0, 187500.0, -187500.02235174447, -0.058, 0.766, 0.624, 192.0, 0.0, 0.0, 0.0, 0.0, 0.0, 0.0, 0.0, 0.0, 0.0, 1.7124604632684855E9, 0.0, 2024-04-06 23:27:43.268
3.0, -1920.5736423222593, -16244.845538716978, -187500.02235174447, -187500.02235174447, 187500.0, 187500.0, 187500.0, -187500.02235174447, -0.058, 0.766, 0.624, 192.0, 0.0, 0.0, 0.0, 0.0, 0.0, 0.0, 0.0, 0.0, 0.0, 1.7124604632684948E9, 0.0, 2024-04-06 23:27:43.268
4.0, -1948.7591920804016, -17383.041069870123, -187500.02235174447, -187500.02235174447, 187500.0, 187500.0, 187500.0, -187500.02235174447, -0.068, 0.756, 0.628, 192.0, 253.0, 224.0, 23.0, 160.0, 19.0, 160.0, 0.0, 0.0, 0.0, 1.712460463268504E9, 0.0, 2024-04-06 23:27:43.268
5.0, -1856.6923566689918, -6625.660553653307, -187500.02235174447, -187500.02235174447, 187500.0, 187500.0, 187500.0, -187500.02235174447, -0.068, 0.756, 0.628, 192.0, 0.0, 0.0, 0.0, 0.0, 0.0, 0.0, 0.0, 0.0, 0.0, 1.7124604632685146E9, 0.0, 2024-04-06 23:27:43.268
6.0, -1785.5691058122047, -3433.093837868433, -187500.02235174447, -187500.02235174447, 187500.0, 187500.0, 187500.0, -187500.02235174447, -0.068, 0.756, 0.628, 192.0, 0.0, 0.0, 0.0, 0.0, 0.0, 0.0, 0.0, 0.0, 0.0, 1.712460463268524E9, 0.0, 2024-04-06 23:27:43.268
7.0, -1840.9343768280003, -14070.244320660153, -187500.02235174447, -187500.02235174447, 187500.0, 187500.0, 187500.0, -187500.02235174447, -0.068, 0.756, 0.628, 192.0, 0.0, 0.0, 0.0, 0.0, 0.0, 0.0, 0.0, 0.0, 0.0, 1.7124604632685328E9, 0.0, 2024-04-06 23:27:43.268
8.0, -1904.167461892064, -18006.095946561807, -187500.02235174447, -187500.02235174447, 187500.0, 187500.0, 187500.0, -187500.02235174447, -0.068, 0.756, 0.628, 192.0, 0.0, 0.0, 0.0, 0.0, 0.0, 0.0, 0.0, 0.0, 0.0, 1.7124604632685418E9, 0.0, 2024-04-06 23:27:43.268
9.0, -1824.7740655868133, -8693.040453558022, -187500.02235174447, -187500.02235174447, 187500.0, 187500.0, 187500.0, -187500.02235174447, -0.068, 0.756, 0.628, 192.0, 0.0, 0.0, 0.0, 0.0, 0.0, 0.0, 0.0, 0.0, 0.0, 1.7124604632685535E9, 0.0, 2024-04-06 23:27:43.268
45.0, -1658.342976372597, -17525.689902983893, -187500.02235174447, -187500.02235174447, 187500.0, 187500.0, 187500.0, -187500.02235174447, -0.068, 0.756, 0.628, 192.0, 0.0, 0.0, 0.0, 0.0, 0.0, 0.0, 0.0, 0.0, 0.0, 1.7124604636389115E9, 0.0, 2024-04-06 23:27:43.638
46.0, -1642.4955895537842, -14216.804709053602, -187500.02235174447, -187500.02235174447, 187500.0, 187500.0, 187500.0, -187500.02235174447, -0.068, 0.756, 0.628, 192.0, 0.0, 0.0, 0.0, 0.0, 0.0, 0.0, 0.0, 0.0, 0.0, 1.7124604636389532E9, 0.0, 2024-04-06 23:27:43.638
47.0, -1564.085670004567, -3495.2093357097315, -187500.02235174447, -187500.02235174447, 187500.0, 187500.0, 187500.0, -187500.02235174447, -0.068, 0.756, 0.628, 192.0, 0.0, 0.0, 0.0, 0.0, 0.0, 0.0, 0.0, 0.0, 0.0, 1.7124604636389723E9, 0.0, 2024-04-06 23:27:43.638
48.0, -1522.086742173045, -5029.9695169889355, -187500.02235174447, -187500.02235174447, 187500.0, 187500.0, 187500.0, -187500.02235174447, -0.068, 0.756, 0.628, 192.0, 0.0, 0.0, 0.0, 0.0, 0.0, 0.0, 0.0, 0.0, 0.0, 1.712460463638985E9, 0.0, 2024-04-06 23:27:43.638
49.0, -1616.8134351746364, -15824.99037086849, -187500.02235174447, -187500.02235174447, 187500.0, 187500.0, 187500.0, -187500.02235174447, -0.068, 0.756, 0.628, 192.0, 0.0, 0.0, 0.0, 0.0, 0.0, 0.0, 0.0, 0.0, 0.0, 1.7124604636389966E9, 0.0, 2024-04-06 23:27:43.638
50.0, -1635.3877348169965, -15348.808806992629, -187500.02235174447, -187500.02235174447, 187500.0, 187500.0, 187500.0, -187500.02235174447, -0.068, 0.756, 0.628, 192.0, 0.0, 0.0, 0.0, 0.0, 0.0, 0.0, 0.0, 0.0, 0.0, 1.7124604636390116E9, 0.0, 2024-04-06 23:27:43.639
51.0, -1563.9068560489245, -5029.656592566561, -187500.02235174447, -187500.02235174447, 187500.0, 187500.0, 187500.0, -187500.02235174447, -0.068, 0.756, 0.628, 192.0, 0.0, 0.0, 0.0, 0.0, 0.0, 0.0, 0.0, 0.0, 0.0, 1.7124604636390233E9, 0.0, 2024-04-06 23:27:43.639
52.0, -1513.7718932356709, -3889.851735812633, -187500.02235174447, -187500.02235174447, 187500.0, 187500.0, 187500.0, -187500.02235174447, -0.068, 0.756, 0.628, 192.0, 0.0, 0.0, 0.0, 0.0, 0.0, 0.0, 0.0, 0.0, 0.0, 1.7124604636390352E9, 0.0, 2024-04-06 23:27:43.639
53.0, -1592.0253505737007, -14784.248445540483, -187500.02235174447, -187500.02235174447, 187500.0, 187500.0, 187500.0, -187500.02235174447, -0.068, 0.756, 0.628, 192.0, 0.0, 0.0, 0.0, 0.0, 0.0, 0.0, 0.0, 0.0, 0.0, 1.7124604636390471E9, 0.0, 2024-04-06 23:27:43.639
54.0, -1642.7414587427925, -16910.34637812929, -187500.02235174447, -187500.02235174447, 187500.0, 187500.0, 187500.0, -187500.02235174447, -0.064, 0.756, 0.618, 192.0, 254.0, 0.0, 23.0, 160.0, 19.0, 80.0, 0.0, 0.0, 0.0, 1.7124604636390593E9, 0.0, 2024-04-06 23:27:43.639
55.0, -1566.11967875, -6710.485423861197, -187500.02235174447, -187500.02235174447, 187500.0, 187500.0, 187500.0, -187500.02235174447, -0.064, 0.756, 0.618, 192.0, 0.0, 0.0, 0.0, 0.0, 0.0, 0.0, 0.0, 0.0, 0.0, 1.7124604636390707E9, 0.0, 2024-04-06 23:27:43.639
56.0, -1505.479396042752, -2582.364092154991, -187500.02235174447, -187500.02235174447, 187500.0, 187500.0, 187500.0, -187500.02235174447, -0.064, 0.756, 0.618, 192.0, 0.0, 0.0, 0.0, 0.0, 0.0, 0.0, 0.0, 0.0, 0.0, 1.712460463639083E9, 0.0, 2024-04-06 23:27:43.639
57.0, -1553.4238878993856, -12524.91176425359, -187500.02235174447, -187500.02235174447, 187500.0, 187500.0, 187500.0, -187500.02235174447, -0.064, 0.756, 0.618, 192.0, 0.0, 0.0, 0.0, 0.0, 0.0, 0.0, 0.0, 0.0, 0.0, 1.7124604636390977E9, 0.0, 2024-04-06 23:27:43.639
58.0, -1634.0913336385888, -17346.20539500778, -187500.02235174447, -187500.02235174447, 187500.0, 187500.0, 187500.0, -187500.02235174447, -0.064, 0.756, 0.618, 192.0, 0.0, 0.0, 0.0, 0.0, 0.0, 0.0, 0.0, 0.0, 0.0, 1.71246046363911E9, 0.0, 2024-04-06 23:27:43.639
59.0, -1572.1546497529328, -8656.920034518247, -187500.02235174447, -187500.02235174447, 187500.0, 187500.0, 187500.0, -187500.02235174447, -0.064, 0.756, 0.618, 192.0, 0.0, 0.0, 0.0, 0.0, 0.0, 0.0, 0.0, 0.0, 0.0, 1.7124604636391218E9, 0.0, 2024-04-06 23:27:43.639
60.0, -1511.2684978566765, -2290.204440379672, -187500.02235174447, -187500.02235174447, 187500.0, 187500.0, 187500.0, -187500.02235174447, -0.064, 0.756, 0.618, 192.0, 0.0, 0.0, 0.0, 0.0, 0.0, 0.0, 0.0, 0.0, 0.0, 1.7124604636391337E9, 0.0, 2024-04-06 23:27:43.639
61.0, -1532.9720417227795, -10802.37457780535, -187500.02235174447, -187500.02235174447, 187500.0, 187500.0, 187500.0, -187500.02235174447, -0.064, 0.756, 0.618, 192.0, 0.0, 0.0, 0.0, 0.0, 0.0, 0.0, 0.0, 0.0, 0.0, 1.7124604636391451E9, 0.0, 2024-04-06 23:27:43.639
62.0, -1636.9076534399574, -18001.960873837575, -187500.02235174447, -187500.02235174447, 187500.0, 187500.0, 187500.0, -187500.02235174447, -0.064, 0.756, 0.618, 192.0, 0.0, 0.0, 0.0, 0.0, 0.0, 0.0, 0.0, 0.0, 0.0, 1.7124604636391568E9, 0.0, 2024-04-06 23:27:43.639
63.0, -1581.341216724064, -10560.595758032294, -187500.02235174447, -187500.02235174447, 187500.0, 187500.0, 187500.0, -187500.02235174447, -0.064, 0.756, 0.618, 192.0, 0.0, 0.0, 0.0, 0.0, 0.0, 0.0, 0.0, 0.0, 0.0, 1.7124604636391716E9, 0.0, 2024-04-06 23:27:43.639
64.0, -1511.1567391344, -1814.335800926185, -187500.02235174447, -187500.02235174447, 187500.0, 187500.0, 187500.0, -187500.02235174447, -0.064, 0.756, 0.618, 192.0, 0.0, 0.0, 0.0, 0.0, 0.0, 0.0, 0.0, 0.0, 0.0, 1.7124604636391833E9, 0.0, 2024-04-06 23:27:43.639
65.0, -1505.5464512761178, -8203.917229642539, -187500.02235174447, -187500.02235174447, 187500.0, 187500.0, 187500.0, -187500.02235174447, -0.058, 0.77, 0.606, 192.0, 254.0, 48.0, 24.0, 16.0, 18.0, 240.0, 0.0, 0.0, 0.0, 1.712460463639195E9, 0.0, 2024-04-06 23:27:43.639
66.0, -1619.8085689316474, -17374.56975872156, -187500.02235174447, -187500.02235174447, 187500.0, 187500.0, 187500.0, -187500.02235174447, -0.058, 0.77, 0.606, 192.0, 0.0, 0.0, 0.0, 0.0, 0.0, 0.0, 0.0, 0.0, 0.0, 1.712460463639207E9, 0.0, 2024-04-06 23:27:43.639
67.0, -1590.8183563731143, -12460.002298355377, -187500.02235174447, -187500.02235174447, 187500.0, 187500.0, 187500.0, -187500.02235174447, -0.058, 0.77, 0.606, 192.0, 0.0, 0.0, 0.0, 0.0, 0.0, 0.0, 0.0, 0.0, 0.0, 1.7124604636392183E9, 0.0, 2024-04-06 23:27:43.639
68.0, -1524.768951507682, -2770.2081525573913, -187500.02235174447, -187500.02235174447, 187500.0, 187500.0, 187500.0, -187500.02235174447, -0.058, 0.77, 0.606, 192.0, 0.0, 0.0, 0.0, 0.0, 0.0, 0.0, 0.0, 0.0, 0.0, 1.71246046363923E9, 0.0, 2024-04-06 23:27:43.639
69.0, -1500.7184744737715, -6757.021755817146, -187500.02235174447, -187500.02235174447, 187500.0, 187500.0, 187500.0, -187500.02235174447, -0.058, 0.77, 0.606, 192.0, 0.0, 0.0, 0.0, 0.0, 0.0, 0.0, 0.0, 0.0, 0.0, 1.7124604636392448E9, 0.0, 2024-04-06 23:27:43.639
70.0, -1619.0262578757117, -17376.179084322346, -187500.02235174447, -187500.02235174447, 187500.0, 187500.0, 187500.0, -187500.02235174447, -0.058, 0.77, 0.606, 192.0, 0.0, 0.0, 0.0, 0.0, 0.0, 0.0, 0.0, 0.0, 0.0, 1.7124604636392567E9, 0.0, 2024-04-06 23:27:43.639
71.0, -1613.6618392064381, -14663.504321992914, -187500.02235174447, -187500.02235174447, 187500.0, 187500.0, 187500.0, -187500.02235174447, -0.058, 0.77, 0.606, 192.0, 0.0, 0.0, 0.0, 0.0, 0.0, 0.0, 0.0, 0.0, 0.0, 1.7124604636392686E9, 0.0, 2024-04-06 23:27:43.639
72.0, -1536.4142103688969, -3773.17562975593, -187500.02235174447, -187500.02235174447, 187500.0, 187500.0, 187500.0, -187500.02235174447, -0.058, 0.77, 0.606, 192.0, 0.0, 0.0, 0.0, 0.0, 0.0, 0.0, 0.0, 0.0, 0.0, 1.7124604636392803E9, 0.0, 2024-04-06 23:27:43.639
73.0, -1493.9458959038134, -4761.8379905030715, -187500.02235174447, -187500.02235174447, 187500.0, 187500.0, 187500.0, -187500.02235174447, -0.058, 0.77, 0.606, 192.0, 0.0, 0.0, 0.0, 0.0, 0.0, 0.0, 0.0, 0.0, 0.0, 1.7124604636392925E9, 0.0, 2024-04-06 23:27:43.639
74.0, -1592.4947372072622, -15790.74749836296, -187500.02235174447, -187500.02235174447, 187500.0, 187500.0, 187500.0, -187500.02235174447, -0.058, 0.77, 0.606, 192.0, 0.0, 0.0, 0.0, 0.0, 0.0, 0.0, 0.0, 0.0, 0.0, 1.7124604636393044E9, 0.0, 2024-04-06 23:27:43.639
75.0, -1621.3955427879744, -15861.669583519648, -187500.02235174447, -187500.02235174447, 187500.0, 187500.0, 187500.0, -187500.02235174447, -0.058, 0.782, 0.6, 192.0, 254.0, 48.0, 24.0, 112.0, 18.0, 192.0, 0.0, 0.0, 0.0, 1.712460463639316E9, 0.0, 2024-04-06 23:27:43.639
76.0, -1549.8476087865365, -5261.42183082364, -187500.02235174447, -187500.02235174447, 187500.0, 187500.0, 187500.0, -187500.02235174447, -0.058, 0.782, 0.6, 192.0, 0.0, 0.0, 0.0, 0.0, 0.0, 0.0, 0.0, 0.0, 0.0, 1.712460463639331E9, 0.0, 2024-04-06 23:27:43.639
77.0, -1498.05861688359, -3375.7169098516597, -187500.02235174447, -187500.02235174447, 187500.0, 187500.0, 187500.0, -187500.02235174447, -0.058, 0.782, 0.6, 192.0, 0.0, 0.0, 0.0, 0.0, 0.0, 0.0, 0.0, 0.0, 0.0, 1.7124604636393428E9, 0.0, 2024-04-06 23:27:43.639
78.0, -1573.0934230200558, -14223.018494012178, -187500.02235174447, -187500.02235174447, 187500.0, 187500.0, 187500.0, -187500.02235174447, -0.058, 0.782, 0.6, 192.0, 0.0, 0.0, 0.0, 0.0, 0.0, 0.0, 0.0, 0.0, 0.0, 1.7124604636393547E9, 0.0, 2024-04-06 23:27:43.639
79.0, -1629.598633003072, -16779.611024810198, -187500.02235174447, -187500.02235174447, 187500.0, 187500.0, 187500.0, -187500.02235174447, -0.058, 0.782, 0.6, 192.0, 0.0, 0.0, 0.0, 0.0, 0.0, 0.0, 0.0, 0.0, 0.0, 1.7124604636393664E9, 0.0, 2024-04-06 23:27:43.639
80.0, -1554.608530355517, -6528.832796672917, -187500.02235174447, -187500.02235174447, 187500.0, 187500.0, 187500.0, -187500.02235174447, -0.058, 0.782, 0.6, 192.0, 0.0, 0.0, 0.0, 0.0, 0.0, 0.0, 0.0, 0.0, 0.0, 1.7124604636393876E9, 0.0, 2024-04-06 23:27:43.639
81.0, -1494.0353028816346, -1831.4572371789502, -187500.02235174447, -187500.02235174447, 187500.0, 187500.0, 187500.0, -187500.02235174447, -0.058, 0.782, 0.6, 192.0, 0.0, 0.0, 0.0, 0.0, 0.0, 0.0, 0.0, 0.0, 0.0, 1.7124604636393995E9, 0.0, 2024-04-06 23:27:43.639
82.0, -1536.1683411798886, -11535.467092450512, -187500.02235174447, -187500.02235174447, 187500.0, 187500.0, 187500.0, -187500.02235174447, -0.058, 0.782, 0.6, 192.0, 0.0, 0.0, 0.0, 0.0, 0.0, 0.0, 0.0, 0.0, 0.0, 1.7124604636394143E9, 0.0, 2024-04-06 23:27:43.639
83.0, -1620.1438450984772, -16791.055117971315, -187500.02235174447, -187500.02235174447, 187500.0, 187500.0, 187500.0, -187500.02235174447, -0.058, 0.782, 0.6, 192.0, 0.0, 0.0, 0.0, 0.0, 0.0, 0.0, 0.0, 0.0, 0.0, 1.712460463639426E9, 0.0, 2024-04-06 23:27:43.639
84.0, -1560.799963569637, -8373.388156102677, -187500.02235174447, -187500.02235174447, 187500.0, 187500.0, 187500.0, -187500.02235174447, -0.058, 0.782, 0.6, 192.0, 0.0, 0.0, 0.0, 0.0, 0.0, 0.0, 0.0, 0.0, 0.0, 1.712460463639438E9, 0.0, 2024-04-06 23:27:43.639
85.0, -1502.283096585643, -1727.365163250585, -187500.02235174447, -187500.02235174447, 187500.0, 187500.0, 187500.0, -187500.02235174447, -0.064, 0.792, 0.598, 192.0, 254.0, 0.0, 24.0, 192.0, 18.0, 176.0, 0.0, 0.0, 0.0, 1.71246046363945E9, 0.0, 2024-04-06 23:27:43.639
86.0, -1520.566823550084, -10001.578629205063, -187500.02235174447, -187500.02235174447, 187500.0, 187500.0, 187500.0, -187500.02235174447, -0.064, 0.792, 0.598, 192.0, 0.0, 0.0, 0.0, 0.0, 0.0, 0.0, 0.0, 0.0, 0.0, 1.712460463639462E9, 0.0, 2024-04-06 23:27:43.639
87.0, -1628.726914969315, -17771.581443736726, -187500.02235174447, -187500.02235174447, 187500.0, 187500.0, 187500.0, -187500.02235174447, -0.064, 0.792, 0.598, 192.0, 0.0, 0.0, 0.0, 0.0, 0.0, 0.0, 0.0, 0.0, 0.0, 1.7124604636394737E9, 0.0, 2024-04-06 23:27:43.639
88.0, -1577.2284957442876, -10713.101710450854, -187500.02235174447, -187500.02235174447, 187500.0, 187500.0, 187500.0, -187500.02235174447, -0.064, 0.792, 0.598, 192.0, 0.0, 0.0, 0.0, 0.0, 0.0, 0.0, 0.0, 0.0, 0.0, 1.7124604636394856E9, 0.0, 2024-04-06 23:27:43.639
89.0, -1506.9769629212574, -1620.5461764986726, -187500.02235174447, -187500.02235174447, 187500.0, 187500.0, 187500.0, -187500.02235174447, -0.064, 0.792, 0.598, 192.0, 0.0, 0.0, 0.0, 0.0, 0.0, 0.0, 0.0, 0.0, 0.0, 1.7124604636395028E9, 0.0, 2024-04-06 23:27:43.639
90.0, -1498.1480238614113, -7614.7699492895545, -187500.02235174447, -187500.02235174447, 187500.0, 187500.0, 187500.0, -187500.02235174447, -0.064, 0.792, 0.598, 192.0, 0.0, 0.0, 0.0, 0.0, 0.0, 0.0, 0.0, 0.0, 0.0, 1.7124604636395147E9, 0.0, 2024-04-06 23:27:43.639
91.0, -1613.885356650991, -17163.993974208115, -187500.02235174447, -187500.02235174447, 187500.0, 187500.0, 187500.0, -187500.02235174447, -0.064, 0.792, 0.598, 192.0, 0.0, 0.0, 0.0, 0.0, 0.0, 0.0, 0.0, 0.0, 0.0, 1.712460463639527E9, 0.0, 2024-04-06 23:27:43.639
92.0, -1589.8125278726254, -12656.720001306534, -187500.02235174447, -187500.02235174447, 187500.0, 187500.0, 187500.0, -187500.02235174447, -0.064, 0.792, 0.598, 192.0, 0.0, 0.0, 0.0, 0.0, 0.0, 0.0, 0.0, 0.0, 0.0, 1.7124604636395397E9, 0.0, 2024-04-06 23:27:43.639
93.0, -1520.8126927390927, -2670.027633908705, -187500.02235174447, -187500.02235174447, 187500.0, 187500.0, 187500.0, -187500.02235174447, -0.064, 0.792, 0.598, 192.0, 0.0, 0.0, 0.0, 0.0, 0.0, 0.0, 0.0, 0.0, 0.0, 1.7124604636395512E9, 0.0, 2024-04-06 23:27:43.639
94.0, -1493.5212127591626, -6133.028105858339, -187500.02235174447, -187500.02235174447, 187500.0, 187500.0, 187500.0, -187500.02235174447, -0.064, 0.792, 0.598, 192.0, 0.0, 0.0, 0.0, 0.0, 0.0, 0.0, 0.0, 0.0, 0.0, 1.7124604636395648E9, 0.0, 2024-04-06 23:27:43.639
95.0, -1608.632696703994, -16918.05772996637, -187500.02235174447, -187500.02235174447, 187500.0, 187500.0, 187500.0, -187500.02235174447, -0.078, 0.788, 0.602, 192.0, 253.0, 144.0, 24.0, 160.0, 18.0, 208.0, 0.0, 0.0, 0.0, 1.7124604636395793E9, 0.0, 2024-04-06 23:27:43.639
96.0, -1609.504414737751, -14713.86280225072, -187500.02235174447, -187500.02235174447, 187500.0, 187500.0, 187500.0, -187500.02235174447, -0.078, 0.788, 0.602, 192.0, 0.0, 0.0, 0.0, 0.0, 0.0, 0.0, 0.0, 0.0, 0.0, 1.7124604636395936E9, 0.0, 2024-04-06 23:27:43.639
97.0, -1533.5084835897069, -3944.7252684504115, -187500.02235174447, -187500.02235174447, 187500.0, 187500.0, 187500.0, -187500.02235174447, -0.078, 0.788, 0.602, 192.0, 0.0, 0.0, 0.0, 0.0, 0.0, 0.0, 0.0, 0.0, 0.0, 1.7124604636396177E9, 0.0, 2024-04-06 23:27:43.639
98.0, -1488.8720499124588, -4457.809562421985, -187500.02235174447, -187500.02235174447, 187500.0, 187500.0, 187500.0, -187500.02235174447, -0.078, 0.788, 0.602, 192.0, 0.0, 0.0, 0.0, 0.0, 0.0, 0.0, 0.0, 0.0, 0.0, 1.7124604636396296E9, 0.0, 2024-04-06 23:27:43.639
99.0, -1582.7270248802931, -15412.667740901441, -187500.02235174447, -187500.02235174447, 187500.0, 187500.0, 187500.0, -187500.02235174447, -0.078, 0.788, 0.602, 192.0, 0.0, 0.0, 0.0, 0.0, 0.0, 0.0, 0.0, 0.0, 0.0, 1.7124604636396413E9, 0.0, 2024-04-06 23:27:43.639
100.0, -1617.7522084417592, -15995.109497917832, -187500.02235174447, -187500.02235174447, 187500.0, 187500.0, 187500.0, -187500.02235174447, -0.078, 0.788, 0.602, 192.0, 0.0, 0.0, 0.0, 0.0, 0.0, 0.0, 0.0, 0.0, 0.0, 1.7124604636396532E9, 0.0, 2024-04-06 23:27:43.639
101.0, -1548.7523733082264, -5762.190313600339, -187500.02235174447, -187500.02235174447, 187500.0, 187500.0, 187500.0, -187500.02235174447, -0.078, 0.788, 0.602, 192.0, 0.0, 0.0, 0.0, 0.0, 0.0, 0.0, 0.0, 0.0, 0.0, 1.712460463639668E9, 0.0, 2024-04-06 23:27:43.639
102.0, -1497.611581994484, -3568.1430778673985, -187500.02235174447, -187500.02235174447, 187500.0, 187500.0, 187500.0, -187500.02235174447, -0.078, 0.788, 0.602, 192.0, 0.0, 0.0, 0.0, 0.0, 0.0, 0.0, 0.0, 0.0, 0.0, 1.71246046363968E9, 0.0, 2024-04-06 23:27:43.639
122.0, -1510.5755937785618, -3697.626733496992, -187500.02235174447, -187500.02235174447, 187500.0, 187500.0, 187500.0, -187500.02235174447, -0.078, 0.788, 0.602, 192.0, 0.0, 0.0, 0.0, 0.0, 0.0, 0.0, 0.0, 0.0, 0.0, 1.7124604637189043E9, 0.0, 2024-04-06 23:27:43.718
123.0, -1463.0110815776684, -3591.9923892012107, -187500.02235174447, -187500.02235174447, 187500.0, 187500.0, 187500.0, -187500.02235174447, -0.078, 0.788, 0.602, 192.0, 0.0, 0.0, 0.0, 0.0, 0.0, 0.0, 0.0, 0.0, 0.0, 1.7124604639132085E9, 0.0, 2024-04-06 23:27:43.913
124.0, -1543.6561755724163, -14313.878335223, -187500.02235174447, -187500.02235174447, 187500.0, 187500.0, 187500.0, -187500.02235174447, -0.078, 0.788, 0.602, 192.0, 0.0, 0.0, 0.0, 0.0, 0.0, 0.0, 0.0, 0.0, 0.0, 1.7124604639132366E9, 0.0, 2024-04-06 23:27:43.913
125.0, -1581.631789401983, -15372.501656115253, -187500.02235174447, -187500.02235174447, 187500.0, 187500.0, 187500.0, -187500.02235174447, -0.074, 0.762, 0.608, 192.0, 253.0, 176.0, 23.0, 208.0, 19.0, 0.0, 0.0, 0.0, 0.0, 1.7124604639132493E9, 0.0, 2024-04-06 23:27:43.913
126.0, -1514.8447769695256, -5381.026015403988, -187500.02235174447, -187500.02235174447, 187500.0, 187500.0, 187500.0, -187500.02235174447, -0.074, 0.762, 0.608, 192.0, 0.0, 0.0, 0.0, 0.0, 0.0, 0.0, 0.0, 0.0, 0.0, 1.7124604639132612E9, 0.0, 2024-04-06 23:27:43.913
127.0, -1463.9498548447914, -2758.2723210182576, -187500.02235174447, -187500.02235174447, 187500.0, 187500.0, 187500.0, -187500.02235174447, -0.074, 0.762, 0.608, 192.0, 0.0, 0.0, 0.0, 0.0, 0.0, 0.0, 0.0, 0.0, 0.0, 1.712460463913276E9, 0.0, 2024-04-06 23:27:43.913
128.0, -1524.3666201074864, -13178.186199448848, -187500.02235174447, -187500.02235174447, 187500.0, 187500.0, 187500.0, -187500.02235174447, -0.074, 0.762, 0.608, 192.0, 0.0, 0.0, 0.0, 0.0, 0.0, 0.0, 0.0, 0.0, 0.0, 1.7124604639132876E9, 0.0, 2024-04-06 23:27:43.913
129.0, -1591.4442052178629, -16800.04051924235, -187500.02235174447, -187500.02235174447, 187500.0, 187500.0, 187500.0, -187500.02235174447, -0.074, 0.762, 0.608, 192.0, 0.0, 0.0, 0.0, 0.0, 0.0, 0.0, 0.0, 0.0, 0.0, 1.712460463913299E9, 0.0, 2024-04-06 23:27:43.913
130.0, -1520.566823550084, -7154.703993165969, -187500.02235174447, -187500.02235174447, 187500.0, 187500.0, 187500.0, -187500.02235174447, -0.074, 0.762, 0.608, 192.0, 0.0, 0.0, 0.0, 0.0, 0.0, 0.0, 0.0, 0.0, 0.0, 1.7124604639133108E9, 0.0, 2024-04-06 23:27:43.913
131.0, -1459.3230437425427, -1613.9077083954464, -187500.02235174447, -187500.02235174447, 187500.0, 187500.0, 187500.0, -187500.02235174447, -0.074, 0.762, 0.608, 192.0, 0.0, 0.0, 0.0, 0.0, 0.0, 0.0, 0.0, 0.0, 0.0, 1.7124604639133236E9, 0.0, 2024-04-06 23:27:43.913
132.0, -1488.8720499124588, -10716.096844207865, -187500.02235174447, -187500.02235174447, 187500.0, 187500.0, 187500.0, -187500.02235174447, -0.074, 0.762, 0.608, 192.0, 0.0, 0.0, 0.0, 0.0, 0.0, 0.0, 0.0, 0.0, 0.0, 1.7124604639133356E9, 0.0, 2024-04-06 23:27:43.913
133.0, -1578.7707661117038, -16852.18713905658, -187500.02235174447, -187500.02235174447, 187500.0, 187500.0, 187500.0, -187500.02235174447, -0.074, 0.762, 0.608, 192.0, 0.0, 0.0, 0.0, 0.0, 0.0, 0.0, 0.0, 0.0, 0.0, 1.7124604639133499E9, 0.0, 2024-04-06 23:27:43.913
134.0, -1524.925413718869, -9085.715900148858, -187500.02235174447, -187500.02235174447, 187500.0, 187500.0, 187500.0, -187500.02235174447, -0.074, 0.762, 0.608, 192.0, 0.0, 0.0, 0.0, 0.0, 0.0, 0.0, 0.0, 0.0, 0.0, 1.7124604639133613E9, 0.0, 2024-04-06 23:27:43.913
135.0, -1463.9051513558807, -1625.8658916790357, -187500.02235174447, -187500.02235174447, 187500.0, 187500.0, 187500.0, -187500.02235174447, -0.07200000000000001, 0.768, 0.612, 192.0, 253.0, 192.0, 24.0, 0.0, 19.0, 32.0, 0.0, 0.0, 0.0, 1.7124604639133728E9, 0.0, 2024-04-06 23:27:43.913
136.0, -1467.86141012447, -8907.863069517978, -187500.02235174447, -187500.02235174447, 187500.0, 187500.0, 187500.0, -187500.02235174447, -0.07200000000000001, 0.768, 0.612, 192.0, 0.0, 0.0, 0.0, 0.0, 0.0, 0.0, 0.0, 0.0, 0.0, 1.7124604639133844E9, 0.0, 2024-04-06 23:27:43.913
137.0, -1572.31111196412, -17120.47512775363, -187500.02235174447, -187500.02235174447, 187500.0, 187500.0, 187500.0, -187500.02235174447, -0.07200000000000001, 0.768, 0.612, 192.0, 0.0, 0.0, 0.0, 0.0, 0.0, 0.0, 0.0, 0.0, 0.0, 1.712460463913396E9, 0.0, 2024-04-06 23:27:43.913
138.0, -1528.2334718982545, -10767.215283777152, -187500.02235174447, -187500.02235174447, 187500.0, 187500.0, 187500.0, -187500.02235174447, -0.07200000000000001, 0.768, 0.612, 192.0, 0.0, 0.0, 0.0, 0.0, 0.0, 0.0, 0.0, 0.0, 0.0, 1.712460463913407E9, 0.0, 2024-04-06 23:27:43.913
139.0, -1459.0101193201685, -1318.7976263520272, -187500.02235174447, -187500.02235174447, 187500.0, 187500.0, 187500.0, -187500.02235174447, -0.07200000000000001, 0.768, 0.612, 192.0, 0.0, 0.0, 0.0, 0.0, 0.0, 0.0, 0.0, 0.0, 0.0, 1.7124604639134185E9, 0.0, 2024-04-06 23:27:43.913
140.0, -1437.5971481319843, -6072.320767917725, -187500.02235174447, -187500.02235174447, 187500.0, 187500.0, 187500.0, -187500.02235174447, -0.07200000000000001, 0.768, 0.612, 192.0, 0.0, 0.0, 0.0, 0.0, 0.0, 0.0, 0.0, 0.0, 0.0, 1.7124604639134328E9, 0.0, 2024-04-06 23:27:43.913
141.0, -1538.7387917922488, -15647.919851293547, -187500.02235174447, -187500.02235174447, 187500.0, 187500.0, 187500.0, -187500.02235174447, -0.07200000000000001, 0.768, 0.612, 192.0, 0.0, 0.0, 0.0, 0.0, 0.0, 0.0, 0.0, 0.0, 0.0, 1.7124604639134443E9, 0.0, 2024-04-06 23:27:43.913
142.0, -1524.5454340631288, -12064.57758719654, -187500.02235174447, -187500.02235174447, 187500.0, 187500.0, 187500.0, -187500.02235174447, -0.07200000000000001, 0.768, 0.612, 192.0, 0.0, 0.0, 0.0, 0.0, 0.0, 0.0, 0.0, 0.0, 0.0, 1.7124604639134555E9, 0.0, 2024-04-06 23:27:43.913
143.0, -1462.6981571552942, -2384.9981886146297, -187500.02235174447, -187500.02235174447, 187500.0, 187500.0, 187500.0, -187500.02235174447, -0.07200000000000001, 0.768, 0.612, 192.0, 0.0, 0.0, 0.0, 0.0, 0.0, 0.0, 0.0, 0.0, 0.0, 1.7124604639134676E9, 0.0, 2024-04-06 23:27:43.913
144.0, -1430.9810317732135, -4903.257477671799, -187500.02235174447, -187500.02235174447, 187500.0, 187500.0, 187500.0, -187500.02235174447, -0.07200000000000001, 0.768, 0.612, 192.0, 0.0, 0.0, 0.0, 0.0, 0.0, 0.0, 0.0, 0.0, 0.0, 1.712460463913479E9, 0.0, 2024-04-06 23:27:43.913
145.0, -1532.8155795115924, -15736.231593636465, -187500.02235174447, -187500.02235174447, 187500.0, 187500.0, 187500.0, -187500.02235174447, -0.07200000000000001, 0.768, 0.612, 192.0, 0.0, 0.0, 0.0, 0.0, 0.0, 0.0, 0.0, 0.0, 0.0, 1.7124604639134908E9, 0.0, 2024-04-06 23:27:43.913
146.0, -1546.1148674625001, -14575.483152327914, -187500.02235174447, -187500.02235174447, 187500.0, 187500.0, 187500.0, -187500.02235174447, -0.07200000000000001, 0.762, 0.618, 192.0, 253.0, 192.0, 23.0, 208.0, 19.0, 80.0, 0.0, 0.0, 0.0, 1.7124604639135053E9, 0.0, 2024-04-06 23:27:43.913
147.0, -1471.8847241264255, -3935.583404968191, -187500.02235174447, -187500.02235174447, 187500.0, 187500.0, 187500.0, -187500.02235174447, -0.07200000000000001, 0.762, 0.618, 192.0, 0.0, 0.0, 0.0, 0.0, 0.0, 0.0, 0.0, 0.0, 0.0, 1.7124604639135168E9, 0.0, 2024-04-06 23:27:43.913
148.0, -1424.9460607702806, -3337.7636477665483, -187500.02235174447, -187500.02235174447, 187500.0, 187500.0, 187500.0, -187500.02235174447, -0.07200000000000001, 0.762, 0.618, 192.0, 0.0, 0.0, 0.0, 0.0, 0.0, 0.0, 0.0, 0.0, 0.0, 1.7124604639135284E9, 0.0, 2024-04-06 23:27:43.913
149.0, -1504.2276983532547, -14162.825246194036, -187500.02235174447, -187500.02235174447, 187500.0, 187500.0, 187500.0, -187500.02235174447, -0.07200000000000001, 0.762, 0.618, 192.0, 0.0, 0.0, 0.0, 0.0, 0.0, 0.0, 0.0, 0.0, 0.0, 1.71246046391354E9, 0.0, 2024-04-06 23:27:43.913
150.0, -1549.244111686243, -15730.040160422346, -187500.02235174447, -187500.02235174447, 187500.0, 187500.0, 187500.0, -187500.02235174447, -0.07200000000000001, 0.762, 0.618, 192.0, 0.0, 0.0, 0.0, 0.0, 0.0, 0.0, 0.0, 0.0, 0.0, 1.7124604639135516E9, 0.0, 2024-04-06 23:27:43.913
151.0, -1480.7807184196377, -5709.775472852644, -187500.02235174447, -187500.02235174447, 187500.0, 187500.0, 187500.0, -187500.02235174447, -0.07200000000000001, 0.762, 0.618, 192.0, 0.0, 0.0, 0.0, 0.0, 0.0, 0.0, 0.0, 0.0, 0.0, 1.7124604639135633E9, 0.0, 2024-04-06 23:27:43.913
152.0, -1426.7565520711605, -2383.411214758303, -187500.02235174447, -187500.02235174447, 187500.0, 187500.0, 187500.0, -187500.02235174447, -0.07200000000000001, 0.762, 0.618, 192.0, 0.0, 0.0, 0.0, 0.0, 0.0, 0.0, 0.0, 0.0, 0.0, 1.7124604639135804E9, 0.0, 2024-04-06 23:27:43.913
153.0, -1479.5960759635063, -12505.108118666187, -187500.02235174447, -187500.02235174447, 187500.0, 187500.0, 187500.0, -187500.02235174447, -0.07200000000000001, 0.762, 0.618, 192.0, 0.0, 0.0, 0.0, 0.0, 0.0, 0.0, 0.0, 0.0, 0.0, 1.712460463913599E9, 0.0, 2024-04-06 23:27:43.913
154.0, -1549.892312275447, -16529.427949121946, -187500.02235174447, -187500.02235174447, 187500.0, 187500.0, 187500.0, -187500.02235174447, -0.07200000000000001, 0.762, 0.618, 192.0, 0.0, 0.0, 0.0, 0.0, 0.0, 0.0, 0.0, 0.0, 0.0, 1.712460463913613E9, 0.0, 2024-04-06 23:27:43.913
155.0, -1485.0722533550565, -7385.9551413005765, -187500.02235174447, -187500.02235174447, 187500.0, 187500.0, 187500.0, -187500.02235174447, -0.07200000000000001, 0.762, 0.618, 192.0, 0.0, 0.0, 0.0, 0.0, 0.0, 0.0, 0.0, 0.0, 0.0, 1.7124604639136271E9, 0.0, 2024-04-06 23:27:43.913
156.0, -1425.3260404260209, -1522.1314456619557, -187500.02235174447, -187500.02235174447, 187500.0, 187500.0, 187500.0, -187500.02235174447, -0.07200000000000001, 0.762, 0.618, 192.0, 253.0, 192.0, 23.0, 208.0, 19.0, 80.0, 0.0, 0.0, 0.0, 1.712460463913642E9, 0.0, 2024-04-06 23:27:43.913
157.0, -1447.7448401146937, -10146.999078631292, -187500.02235174447, -187500.02235174447, 187500.0, 187500.0, 187500.0, -187500.02235174447, -0.07200000000000001, 0.762, 0.618, 192.0, 0.0, 0.0, 0.0, 0.0, 0.0, 0.0, 0.0, 0.0, 0.0, 1.7124604639136567E9, 0.0, 2024-04-06 23:27:43.913
158.0, -1538.0458877141343, -16514.027597192242, -187500.02235174447, -187500.02235174447, 187500.0, 187500.0, 187500.0, -187500.02235174447, -0.07200000000000001, 0.762, 0.618, 192.0, 0.0, 0.0, 0.0, 0.0, 0.0, 0.0, 0.0, 0.0, 0.0, 1.712460463913672E9, 0.0, 2024-04-06 23:27:43.913
159.0, -1488.4250150233527, -9097.070586332153, -187500.02235174447, -187500.02235174447, 187500.0, 187500.0, 187500.0, -187500.02235174447, -0.07200000000000001, 0.762, 0.618, 192.0, 0.0, 0.0, 0.0, 0.0, 0.0, 0.0, 0.0, 0.0, 0.0, 1.7124604639136896E9, 0.0, 2024-04-06 23:27:43.913
160.0, -1429.6399271058951, -1429.2599474501549, -187500.02235174447, -187500.02235174447, 187500.0, 187500.0, 187500.0, -187500.02235174447, -0.07200000000000001, 0.762, 0.618, 192.0, 0.0, 0.0, 0.0, 0.0, 0.0, 0.0, 0.0, 0.0, 0.0, 1.7124604639137049E9, 0.0, 2024-04-06 23:27:43.913
161.0, -1428.7235055832275, -8220.502224028376, -187500.02235174447, -187500.02235174447, 187500.0, 187500.0, 187500.0, -187500.02235174447, -0.07200000000000001, 0.762, 0.618, 192.0, 0.0, 0.0, 0.0, 0.0, 0.0, 0.0, 0.0, 0.0, 0.0, 1.7124604639137192E9, 0.0, 2024-04-06 23:27:43.913
162.0, -1532.0332684556568, -16724.871602639152, -187500.02235174447, -187500.02235174447, 187500.0, 187500.0, 187500.0, -187500.02235174447, -0.07200000000000001, 0.762, 0.618, 192.0, 0.0, 0.0, 0.0, 0.0, 0.0, 0.0, 0.0, 0.0, 0.0, 1.7124604639137335E9, 0.0, 2024-04-06 23:27:43.913
163.0, -1494.05765462609, -10899.895238863855, -187500.02235174447, -187500.02235174447, 187500.0, 187500.0, 187500.0, -187500.02235174447, -0.07200000000000001, 0.762, 0.618, 192.0, 0.0, 0.0, 0.0, 0.0, 0.0, 0.0, 0.0, 0.0, 0.0, 1.7124604639137475E9, 0.0, 2024-04-06 23:27:43.913
164.0, -1426.130703226412, -1437.4630376652526, -187500.02235174447, -187500.02235174447, 187500.0, 187500.0, 187500.0, -187500.02235174447, -0.07200000000000001, 0.762, 0.618, 192.0, 0.0, 0.0, 0.0, 0.0, 0.0, 0.0, 0.0, 0.0, 0.0, 1.712460463913764E9, 0.0, 2024-04-06 23:27:43.913
165.0, -1402.0131709591356, -5724.527624193147, -187500.02235174447, -187500.02235174447, 187500.0, 187500.0, 187500.0, -187500.02235174447, -0.07200000000000001, 0.762, 0.618, 192.0, 0.0, 0.0, 0.0, 0.0, 0.0, 0.0, 0.0, 0.0, 0.0, 1.712460463913782E9, 0.0, 2024-04-06 23:27:43.913
166.0, -1501.2325645962435, -15457.482988534332, -187500.02235174447, -187500.02235174447, 187500.0, 187500.0, 187500.0, -187500.02235174447, -0.07200000000000001, 0.778, 0.618, 192.0, 253.0, 192.0, 24.0, 80.0, 19.0, 80.0, 0.0, 0.0, 0.0, 1.7124604639138076E9, 0.0, 2024-04-06 23:27:43.913
167.0, -1493.0071226366906, -12361.565215774204, -187500.02235174447, -187500.02235174447, 187500.0, 187500.0, 187500.0, -187500.02235174447, -0.07200000000000001, 0.778, 0.618, 192.0, 0.0, 0.0, 0.0, 0.0, 0.0, 0.0, 0.0, 0.0, 0.0, 1.7124604639138196E9, 0.0, 2024-04-06 23:27:43.913
168.0, -1431.383363173409, -2686.5902765500878, -187500.02235174447, -187500.02235174447, 187500.0, 187500.0, 187500.0, -187500.02235174447, -0.07200000000000001, 0.778, 0.618, 192.0, 0.0, 0.0, 0.0, 0.0, 0.0, 0.0, 0.0, 0.0, 0.0, 1.7124604639138322E9, 0.0, 2024-04-06 23:27:43.913
169.0, -1397.60987730144, -4658.63998635292, -187500.02235174447, -187500.02235174447, 187500.0, 187500.0, 187500.0, -187500.02235174447, -0.07200000000000001, 0.778, 0.618, 192.0, 0.0, 0.0, 0.0, 0.0, 0.0, 0.0, 0.0, 0.0, 0.0, 1.7124604639138472E9, 0.0, 2024-04-06 23:27:43.913
190.0, -1394.413577844331, -6348.185997985125, -187500.02235174447, -187500.02235174447, 187500.0, 187500.0, 187500.0, -187500.02235174447, -0.07200000000000001, 0.778, 0.618, 192.0, 0.0, 0.0, 0.0, 0.0, 0.0, 0.0, 0.0, 0.0, 0.0, 1.7124604642105904E9, 0.0, 2024-04-06 23:27:44.210
191.0, -1496.158718604889, -16303.27299872315, -187500.02235174447, -187500.02235174447, 187500.0, 187500.0, 187500.0, -187500.02235174447, -0.07200000000000001, 0.778, 0.618, 192.0, 0.0, 0.0, 0.0, 0.0, 0.0, 0.0, 0.0, 0.0, 0.0, 1.7124604642106197E9, 0.0, 2024-04-06 23:27:44.210
192.0, -1494.8176139375705, -13738.320915498844, -187500.02235174447, -187500.02235174447, 187500.0, 187500.0, 187500.0, -187500.02235174447, -0.07200000000000001, 0.778, 0.618, 192.0, 0.0, 0.0, 0.0, 0.0, 0.0, 0.0, 0.0, 0.0, 0.0, 1.7124604642106366E9, 0.0, 2024-04-06 23:27:44.210
193.0, -1430.6681073508391, -3913.9916198243645, -187500.02235174447, -187500.02235174447, 187500.0, 187500.0, 187500.0, -187500.02235174447, -0.07200000000000001, 0.778, 0.618, 192.0, 0.0, 0.0, 0.0, 0.0, 0.0, 0.0, 0.0, 0.0, 0.0, 1.712460464210649E9, 0.0, 2024-04-06 23:27:44.210
194.0, -1392.6254382879065, -5233.593908976783, -187500.02235174447, -187500.02235174447, 187500.0, 187500.0, 187500.0, -187500.02235174447, -0.07200000000000001, 0.778, 0.618, 192.0, 0.0, 0.0, 0.0, 0.0, 0.0, 0.0, 0.0, 0.0, 0.0, 1.7124604642106612E9, 0.0, 2024-04-06 23:27:44.210
195.0, -1485.7875091776264, -15868.755086511981, -187500.02235174447, -187500.02235174447, 187500.0, 187500.0, 187500.0, -187500.02235174447, -0.07200000000000001, 0.778, 0.618, 192.0, 0.0, 0.0, 0.0, 0.0, 0.0, 0.0, 0.0, 0.0, 0.0, 1.712460464210673E9, 0.0, 2024-04-06 23:27:44.210
196.0, -1511.8719949569697, -15613.833440999204, -187500.02235174447, -187500.02235174447, 187500.0, 187500.0, 187500.0, -187500.02235174447, -0.066, 0.77, 0.62, 192.0, 253.0, 240.0, 24.0, 16.0, 19.0, 96.0, 0.0, 0.0, 0.0, 1.7124604642106855E9, 0.0, 2024-04-06 23:27:44.210
197.0, -1439.2288254772218, -5246.669679483138, -187500.02235174447, -187500.02235174447, 187500.0, 187500.0, 187500.0, -187500.02235174447, -0.066, 0.77, 0.62, 192.0, 0.0, 0.0, 0.0, 0.0, 0.0, 0.0, 0.0, 0.0, 0.0, 1.712460464210698E9, 0.0, 2024-04-06 23:27:44.210
198.0, -1388.4680138192193, -3549.6134817139487, -187500.02235174447, -187500.02235174447, 187500.0, 187500.0, 187500.0, -187500.02235174447, -0.066, 0.77, 0.62, 192.0, 0.0, 0.0, 0.0, 0.0, 0.0, 0.0, 0.0, 0.0, 0.0, 1.712460464210713E9, 0.0, 2024-04-06 23:27:44.210
199.0, -1451.835209350015, -13724.127557769723, -187500.02235174447, -187500.02235174447, 187500.0, 187500.0, 187500.0, -187500.02235174447, -0.066, 0.77, 0.62, 192.0, 0.0, 0.0, 0.0, 0.0, 0.0, 0.0, 0.0, 0.0, 0.0, 1.7124604642107253E9, 0.0, 2024-04-06 23:27:44.210
200.0, -1507.0440181546235, -16157.047886496532, -187500.02235174447, -187500.02235174447, 187500.0, 187500.0, 187500.0, -187500.02235174447, -0.066, 0.77, 0.62, 192.0, 0.0, 0.0, 0.0, 0.0, 0.0, 0.0, 0.0, 0.0, 0.0, 1.7124604642107406E9, 0.0, 2024-04-06 23:27:44.210
201.0, -1445.7331831137162, -6847.054582483123, -187500.02235174447, -187500.02235174447, 187500.0, 187500.0, 187500.0, -187500.02235174447, -0.066, 0.77, 0.62, 192.0, 0.0, 0.0, 0.0, 0.0, 0.0, 0.0, 0.0, 0.0, 0.0, 1.7124604642107532E9, 0.0, 2024-04-06 23:27:44.210
202.0, -1393.4077493438424, -2822.4665310938994, -187500.02235174447, -187500.02235174447, 187500.0, 187500.0, 187500.0, -187500.02235174447, -0.066, 0.77, 0.62, 192.0, 0.0, 0.0, 0.0, 0.0, 0.0, 0.0, 0.0, 0.0, 0.0, 1.7124604642107656E9, 0.0, 2024-04-06 23:27:44.210
203.0, -1430.0869619950013, -12150.318878927099, -187500.02235174447, -187500.02235174447, 187500.0, 187500.0, 187500.0, -187500.02235174447, -0.066, 0.77, 0.62, 192.0, 0.0, 0.0, 0.0, 0.0, 0.0, 0.0, 0.0, 0.0, 0.0, 1.7124604642107775E9, 0.0, 2024-04-06 23:27:44.210
204.0, -1505.3676373204753, -16850.66722043362, -187500.02235174447, -187500.02235174447, 187500.0, 187500.0, 187500.0, -187500.02235174447, -0.066, 0.77, 0.62, 192.0, 0.0, 0.0, 0.0, 0.0, 0.0, 0.0, 0.0, 0.0, 0.0, 1.7124604642107933E9, 0.0, 2024-04-06 23:27:44.210
205.0, -1441.5310551561183, -8006.372512146535, -187500.02235174447, -187500.02235174447, 187500.0, 187500.0, 187500.0, -187500.02235174447, -0.066, 0.77, 0.62, 192.0, 0.0, 0.0, 0.0, 0.0, 0.0, 0.0, 0.0, 0.0, 0.0, 1.712460464210808E9, 0.0, 2024-04-06 23:27:44.210
206.0, -1379.7955369705603, -1257.3973843332988, -187500.02235174447, -187500.02235174447, 187500.0, 187500.0, 187500.0, -187500.02235174447, -0.07, 0.77, 0.612, 192.0, 253.0, 208.0, 24.0, 16.0, 19.0, 32.0, 0.0, 0.0, 0.0, 1.7124604642108202E9, 0.0, 2024-04-06 23:27:44.210
207.0, -1383.3941678278647, -8724.310544050997, -187500.02235174447, -187500.02235174447, 187500.0, 187500.0, 187500.0, -187500.02235174447, -0.07, 0.77, 0.612, 192.0, 0.0, 0.0, 0.0, 0.0, 0.0, 0.0, 0.0, 0.0, 0.0, 1.712460464210832E9, 0.0, 2024-04-06 23:27:44.210
208.0, -1468.666072924861, -15598.768365236327, -187500.02235174447, -187500.02235174447, 187500.0, 187500.0, 187500.0, -187500.02235174447, -0.07, 0.77, 0.612, 192.0, 0.0, 0.0, 0.0, 0.0, 0.0, 0.0, 0.0, 0.0, 0.0, 1.712460464210844E9, 0.0, 2024-04-06 23:27:44.210
209.0, -1428.097656738479, -9061.218388225841, -187500.02235174447, -187500.02235174447, 187500.0, 187500.0, 187500.0, -187500.02235174447, -0.07, 0.77, 0.612, 192.0, 0.0, 0.0, 0.0, 0.0, 0.0, 0.0, 0.0, 0.0, 0.0, 1.7124604642108572E9, 0.0, 2024-04-06 23:27:44.210
210.0, -1375.0793188904904, -1291.327332416455, -187500.02235174447, -187500.02235174447, 187500.0, 187500.0, 187500.0, -187500.02235174447, -0.07, 0.77, 0.612, 192.0, 0.0, 0.0, 0.0, 0.0, 0.0, 0.0, 0.0, 0.0, 0.0, 1.7124604642108693E9, 0.0, 2024-04-06 23:27:44.210
211.0, -1364.5069437631303, -7106.424225142507, -187500.02235174447, -187500.02235174447, 187500.0, 187500.0, 187500.0, -187500.02235174447, -0.07, 0.77, 0.612, 192.0, 0.0, 0.0, 0.0, 0.0, 0.0, 0.0, 0.0, 0.0, 0.0, 1.7124604642108848E9, 0.0, 2024-04-06 23:27:44.210
212.0, -1462.8546193664813, -16085.723469939647, -187500.02235174447, -187500.02235174447, 187500.0, 187500.0, 187500.0, -187500.02235174447, -0.07, 0.77, 0.612, 192.0, 0.0, 0.0, 0.0, 0.0, 0.0, 0.0, 0.0, 0.0, 0.0, 1.7124604642108972E9, 0.0, 2024-04-06 23:27:44.210
213.0, -1435.8313603200152, -11280.009005070808, -187500.02235174447, -187500.02235174447, 187500.0, 187500.0, 187500.0, -187500.02235174447, -0.07, 0.77, 0.612, 192.0, 0.0, 0.0, 0.0, 0.0, 0.0, 0.0, 0.0, 0.0, 0.0, 1.7124604642109091E9, 0.0, 2024-04-06 23:27:44.210
214.0, -1368.5973129984513, -1669.6529590669822, -187500.02235174447, -187500.02235174447, 187500.0, 187500.0, 187500.0, -187500.02235174447, -0.07, 0.77, 0.612, 192.0, 0.0, 0.0, 0.0, 0.0, 0.0, 0.0, 0.0, 0.0, 0.0, 1.7124604642109213E9, 0.0, 2024-04-06 23:27:44.210
215.0, -1340.031783584569, -4946.373992726087, -187500.02235174447, -187500.02235174447, 187500.0, 187500.0, 187500.0, -187500.02235174447, -0.07, 0.77, 0.612, 192.0, 0.0, 0.0, 0.0, 0.0, 0.0, 0.0, 0.0, 0.0, 0.0, 1.7124604642109332E9, 0.0, 2024-04-06 23:27:44.210
216.0, -1433.8644068079482, -15064.159341354292, -187500.02235174447, -187500.02235174447, 187500.0, 187500.0, 187500.0, -187500.02235174447, -0.07, 0.77, 0.602, 192.0, 253.0, 208.0, 24.0, 16.0, 18.0, 208.0, 0.0, 0.0, 0.0, 1.7124604642109456E9, 0.0, 2024-04-06 23:27:44.210
217.0, -1437.641851620895, -13001.249790340638, -187500.02235174447, -187500.02235174447, 187500.0, 187500.0, 187500.0, -187500.02235174447, -0.07, 0.77, 0.602, 192.0, 0.0, 0.0, 0.0, 0.0, 0.0, 0.0, 0.0, 0.0, 0.0, 1.712460464210961E9, 0.0, 2024-04-06 23:27:44.210
218.0, -1373.738214223172, -3188.3198843383652, -187500.02235174447, -187500.02235174447, 187500.0, 187500.0, 187500.0, -187500.02235174447, -0.07, 0.77, 0.602, 192.0, 0.0, 0.0, 0.0, 0.0, 0.0, 0.0, 0.0, 0.0, 0.0, 1.7124604642109735E9, 0.0, 2024-04-06 23:27:44.210
219.0, -1333.6391846703511, -3849.775058004267, -187500.02235174447, -187500.02235174447, 187500.0, 187500.0, 187500.0, -187500.02235174447, -0.07, 0.77, 0.602, 192.0, 0.0, 0.0, 0.0, 0.0, 0.0, 0.0, 0.0, 0.0, 0.0, 1.7124604642109864E9, 0.0, 2024-04-06 23:27:44.210
220.0, -1411.9820489862025, -14261.016459586199, -187500.02235174447, -187500.02235174447, 187500.0, 187500.0, 187500.0, -187500.02235174447, -0.07, 0.77, 0.602, 192.0, 0.0, 0.0, 0.0, 0.0, 0.0, 0.0, 0.0, 0.0, 0.0, 1.7124604642109988E9, 0.0, 2024-04-06 23:27:44.210
221.0, -1439.47469466623, -14427.179327866952, -187500.02235174447, -187500.02235174447, 187500.0, 187500.0, 187500.0, -187500.02235174447, -0.07, 0.77, 0.602, 192.0, 0.0, 0.0, 0.0, 0.0, 0.0, 0.0, 0.0, 0.0, 0.0, 1.712460464211012E9, 0.0, 2024-04-06 23:27:44.211
222.0, -1371.8159642000157, -4470.818277694974, -187500.02235174447, -187500.02235174447, 187500.0, 187500.0, 187500.0, -187500.02235174447, -0.07, 0.77, 0.602, 192.0, 0.0, 0.0, 0.0, 0.0, 0.0, 0.0, 0.0, 0.0, 0.0, 1.7124604642110252E9, 0.0, 2024-04-06 23:27:44.211
223.0, -1322.7985886095273, -2445.4373056217796, -187500.02235174447, -187500.02235174447, 187500.0, 187500.0, 187500.0, -187500.02235174447, -0.07, 0.77, 0.602, 192.0, 0.0, 0.0, 0.0, 0.0, 0.0, 0.0, 0.0, 0.0, 0.0, 1.7124604642110395E9, 0.0, 2024-04-06 23:27:44.211
224.0, -1374.7887462125716, -12285.23400845933, -187500.02235174447, -187500.02235174447, 187500.0, 187500.0, 187500.0, -187500.02235174447, -0.07, 0.77, 0.602, 192.0, 0.0, 0.0, 0.0, 0.0, 0.0, 0.0, 0.0, 0.0, 0.0, 1.712460464211058E9, 0.0, 2024-04-06 23:27:44.211
225.0, -1432.0762672515234, -15195.654653984864, -187500.02235174447, -187500.02235174447, 187500.0, 187500.0, 187500.0, -187500.02235174447, -0.07, 0.77, 0.602, 192.0, 0.0, 0.0, 0.0, 0.0, 0.0, 0.0, 0.0, 0.0, 0.0, 1.71246046421107E9, 0.0, 2024-04-06 23:27:44.211
226.0, -1375.8169264575156, -6486.18566825219, -187500.02235174447, -187500.02235174447, 187500.0, 187500.0, 187500.0, -187500.02235174447, -0.07, 0.77, 0.602, 192.0, 0.0, 0.0, 0.0, 0.0, 0.0, 0.0, 0.0, 0.0, 0.0, 1.7124604642110822E9, 0.0, 2024-04-06 23:27:44.211
227.0, -1327.872434600882, -2478.2943699710813, -187500.02235174447, -187500.02235174447, 187500.0, 187500.0, 187500.0, -187500.02235174447, -0.07200000000000001, 0.782, 0.598, 192.0, 253.0, 192.0, 24.0, 112.0, 18.0, 176.0, 0.0, 0.0, 0.0, 1.7124604642110949E9, 0.0, 2024-04-06 23:27:44.211
228.0, -1361.9141414063147, -11559.964604373528, -187500.02235174447, -187500.02235174447, 187500.0, 187500.0, 187500.0, -187500.02235174447, -0.07200000000000001, 0.782, 0.598, 192.0, 0.0, 0.0, 0.0, 0.0, 0.0, 0.0, 0.0, 0.0, 0.0, 1.7124604642111063E9, 0.0, 2024-04-06 23:27:44.211
229.0, -1445.1073342689676, -16892.844962220785, -187500.02235174447, -187500.02235174447, 187500.0, 187500.0, 187500.0, -187500.02235174447, -0.07200000000000001, 0.782, 0.598, 192.0, 0.0, 0.0, 0.0, 0.0, 0.0, 0.0, 0.0, 0.0, 0.0, 1.7124604642111225E9, 0.0, 2024-04-06 23:27:44.211
230.0, -1388.356255096943, -8789.845858793959, -187500.02235174447, -187500.02235174447, 187500.0, 187500.0, 187500.0, -187500.02235174447, -0.07200000000000001, 0.782, 0.598, 192.0, 0.0, 0.0, 0.0, 0.0, 0.0, 0.0, 0.0, 0.0, 0.0, 1.7124604642111554E9, 0.0, 2024-04-06 23:27:44.211
231.0, -1328.7218008901837, -2051.934844486099, -187500.02235174447, -187500.02235174447, 187500.0, 187500.0, 187500.0, -187500.02235174447, -0.07200000000000001, 0.782, 0.598, 192.0, 0.0, 0.0, 0.0, 0.0, 0.0, 0.0, 0.0, 0.0, 0.0, 1.7124604642111695E9, 0.0, 2024-04-06 23:27:44.211
232.0, -1332.543949192041, -9249.084800372697, -187500.02235174447, -187500.02235174447, 187500.0, 187500.0, 187500.0, -187500.02235174447, -0.07200000000000001, 0.782, 0.598, 192.0, 0.0, 0.0, 0.0, 0.0, 0.0, 0.0, 0.0, 0.0, 0.0, 1.712460464211184E9, 0.0, 2024-04-06 23:27:44.211
233.0, -1425.6613165928504, -16515.145184415007, -187500.02235174447, -187500.02235174447, 187500.0, 187500.0, 187500.0, -187500.02235174447, -0.07200000000000001, 0.782, 0.598, 192.0, 0.0, 0.0, 0.0, 0.0, 0.0, 0.0, 0.0, 0.0, 0.0, 1.712460464211202E9, 0.0, 2024-04-06 23:27:44.211
234.0, -1391.5302028095964, -10518.038036589389, -187500.02235174447, -187500.02235174447, 187500.0, 187500.0, 187500.0, -187500.02235174447, -0.07200000000000001, 0.782, 0.598, 192.0, 0.0, 0.0, 0.0, 0.0, 0.0, 0.0, 0.0, 0.0, 0.0, 1.7124604642112143E9, 0.0, 2024-04-06 23:27:44.211
235.0, -1336.6790219162729, -2467.67729135481, -187500.02235174447, -187500.02235174447, 187500.0, 187500.0, 187500.0, -187500.02235174447, -0.07200000000000001, 0.782, 0.598, 192.0, 0.0, 0.0, 0.0, 0.0, 0.0, 0.0, 0.0, 0.0, 0.0, 1.7124604642112265E9, 0.0, 2024-04-06 23:27:44.211
236.0, -1319.512882174597, -7494.718729820101, -187500.02235174447, -187500.02235174447, 187500.0, 187500.0, 187500.0, -187500.02235174447, -0.07200000000000001, 0.782, 0.598, 192.0, 0.0, 0.0, 0.0, 0.0, 0.0, 0.0, 0.0, 0.0, 0.0, 1.7124604642112412E9, 0.0, 2024-04-06 23:27:44.211
237.0, -1407.7575692841494, -16156.757313818613, -187500.02235174447, -187500.02235174447, 187500.0, 187500.0, 187500.0, -187500.02235174447, -0.07, 0.786, 0.586, 192.0, 253.0, 208.0, 24.0, 144.0, 18.0, 80.0, 0.0, 0.0, 0.0, 1.712460464211253E9, 0.0, 2024-04-06 23:27:44.211
238.0, -1381.5389730380743, -11363.001032233362, -187500.02235174447, -187500.02235174447, 187500.0, 187500.0, 187500.0, -187500.02235174447, -0.07, 0.786, 0.586, 192.0, 0.0, 0.0, 0.0, 0.0, 0.0, 0.0, 0.0, 0.0, 0.0, 1.7124604642112648E9, 0.0, 2024-04-06 23:27:44.211
239.0, -1314.5731466499742, -1585.8339173595807, -187500.02235174447, -187500.02235174447, 187500.0, 187500.0, 187500.0, -187500.02235174447, -0.07, 0.786, 0.586, 192.0, 0.0, 0.0, 0.0, 0.0, 0.0, 0.0, 0.0, 0.0, 0.0, 1.7124604642112763E9, 0.0, 2024-04-06 23:27:44.211
240.0, -1273.9600269746813, -3693.82693693959, -187500.02235174447, -187500.02235174447, 187500.0, 187500.0, 187500.0, -187500.02235174447, -0.07, 0.786, 0.586, 192.0, 0.0, 0.0, 0.0, 0.0, 0.0, 0.0, 0.0, 0.0, 0.0, 1.712460464211288E9, 0.0, 2024-04-06 23:27:44.211
241.0, -1332.1192660473903, -12618.8784979437, -187500.02235174447, -187500.02235174447, 187500.0, 187500.0, 187500.0, -187500.02235174447, -0.07, 0.786, 0.586, 192.0, 0.0, 0.0, 0.0, 0.0, 0.0, 0.0, 0.0, 0.0, 0.0, 1.7124604642113025E9, 0.0, 2024-04-06 23:27:44.211
242.0, -1336.1872835382562, -10767.103525054876, -187500.02235174447, -187500.02235174447, 187500.0, 187500.0, 187500.0, -187500.02235174447, -0.07, 0.786, 0.586, 192.0, 0.0, 0.0, 0.0, 0.0, 0.0, 0.0, 0.0, 0.0, 0.0, 1.712460464211314E9, 0.0, 2024-04-06 23:27:44.211
243.0, -1284.353588146399, -1562.1187164925, -187500.02235174447, -187500.02235174447, 187500.0, 187500.0, 187500.0, -187500.02235174447, -0.07, 0.786, 0.586, 192.0, 0.0, 0.0, 0.0, 0.0, 0.0, 0.0, 0.0, 0.0, 0.0, 1.7124604642113287E9, 0.0, 2024-04-06 23:27:44.211
244.0, -1249.551922029486, -2007.745445697957, -187500.02235174447, -187500.02235174447, 187500.0, 187500.0, 187500.0, -187500.02235174447, -0.07, 0.786, 0.586, 192.0, 0.0, 0.0, 0.0, 0.0, 0.0, 0.0, 0.0, 0.0, 0.0, 1.7124604642113404E9, 0.0, 2024-04-06 23:27:44.211
245.0, -1303.866661055882, -11903.175640484767, -187500.02235174447, -187500.02235174447, 187500.0, 187500.0, 187500.0, -187500.02235174447, -0.07, 0.786, 0.586, 192.0, 0.0, 0.0, 0.0, 0.0, 0.0, 0.0, 0.0, 0.0, 0.0, 1.712460464211352E9, 0.0, 2024-04-06 23:27:44.211
7.0, -1265.421660592754, -11716.27035334949, -187500.02235174447, -187500.02235174447, 187500.0, 187500.0, 187500.0, -187500.02235174447, -0.07, 0.786, 0.586, 192.0, 0.0, 0.0, 0.0, 0.0, 0.0, 0.0, 0.0, 0.0, 0.0, 1.7124604643226836E9, 0.0, 2024-04-06 23:27:44.322
8.0, -1214.750255912573, -3286.4663942416187, -187500.02235174447, -187500.02235174447, 187500.0, 187500.0, 187500.0, -187500.02235174447, -0.07, 0.786, 0.586, 192.0, 0.0, 0.0, 0.0, 0.0, 0.0, 0.0, 0.0, 0.0, 0.0, 1.7124604643227036E9, 0.0, 2024-04-06 23:27:44.322
9.0, -1190.655075389752, -6157.056231147794, -187500.02235174447, -187500.02235174447, 187500.0, 187500.0, 187500.0, -187500.02235174447, -0.07, 0.786, 0.586, 192.0, 0.0, 0.0, 0.0, 0.0, 0.0, 0.0, 0.0, 0.0, 0.0, 1.7124604643227117E9, 0.0, 2024-04-06 23:27:44.322
10.0, -1291.0144079940806, -16280.764792056656, -187500.02235174447, -187500.02235174447, 187500.0, 187500.0, 187500.0, -187500.02235174447, -0.07, 0.786, 0.586, 192.0, 0.0, 0.0, 0.0, 0.0, 0.0, 0.0, 0.0, 0.0, 0.0, 1.7124604643227208E9, 0.0, 2024-04-06 23:27:44.322
11.0, -1312.2038617377118, -15147.397237705856, -187500.02235174447, -187500.02235174447, 187500.0, 187500.0, 187500.0, -187500.02235174447, -0.036000000000000004, 0.806, 0.596, 192.0, 254.0, 224.0, 25.0, 48.0, 18.0, 160.0, 0.0, 0.0, 0.0, 1.7124604643227267E9, 0.0, 2024-04-06 23:27:44.322
12.0, -1249.1048871403798, -5686.663769085857, -187500.02235174447, -187500.02235174447, 187500.0, 187500.0, 187500.0, -187500.02235174447, -0.036000000000000004, 0.806, 0.596, 192.0, 0.0, 0.0, 0.0, 0.0, 0.0, 0.0, 0.0, 0.0, 0.0, 1.7124604643227327E9, 0.0, 2024-04-06 23:27:44.322
13.0, -1209.4752442211204, -5638.451056295759, -187500.02235174447, -187500.02235174447, 187500.0, 187500.0, 187500.0, -187500.02235174447, -0.036000000000000004, 0.806, 0.596, 192.0, 0.0, 0.0, 0.0, 0.0, 0.0, 0.0, 0.0, 0.0, 0.0, 1.7124604643227382E9, 0.0, 2024-04-06 23:27:44.322
14.0, -1286.4770038696533, -15635.961668009957, -187500.02235174447, -187500.02235174447, 187500.0, 187500.0, 187500.0, -187500.02235174447, -0.036000000000000004, 0.806, 0.596, 192.0, 0.0, 0.0, 0.0, 0.0, 0.0, 0.0, 0.0, 0.0, 0.0, 1.7124604643227437E9, 0.0, 2024-04-06 23:27:44.322
15.0, -1340.4117632403093, -17281.251225620654, -187500.02235174447, -187500.02235174447, 187500.0, 187500.0, 187500.0, -187500.02235174447, -0.036000000000000004, 0.806, 0.596, 192.0, 0.0, 0.0, 0.0, 0.0, 0.0, 0.0, 0.0, 0.0, 0.0, 1.7124604643227491E9, 0.0, 2024-04-06 23:27:44.322
16.0, -1286.0523207250026, -8869.596883010494, -187500.02235174447, -187500.02235174447, 187500.0, 187500.0, 187500.0, -187500.02235174447, -0.036000000000000004, 0.806, 0.596, 192.0, 0.0, 0.0, 0.0, 0.0, 0.0, 0.0, 0.0, 0.0, 0.0, 1.7124604643227546E9, 0.0, 2024-04-06 23:27:44.322
17.0, -1241.4829422811201, -6866.9476350483465, -187500.02235174447, -187500.02235174447, 187500.0, 187500.0, 187500.0, -187500.02235174447, -0.036000000000000004, 0.806, 0.596, 192.0, 0.0, 0.0, 0.0, 0.0, 0.0, 0.0, 0.0, 0.0, 0.0, 1.7124604643227632E9, 0.0, 2024-04-06 23:27:44.322
23.0, -1487.352131289498, -24670.134445444877, -187500.02235174447, -187500.02235174447, 187500.0, 187500.0, 187500.0, -187500.02235174447, -0.036000000000000004, 0.806, 0.596, 192.0, 0.0, 0.0, 0.0, 0.0, 0.0, 0.0, 0.0, 0.0, 0.0, 1.712460464415772E9, 0.0, 2024-04-06 23:27:44.415
24.0, -1449.3094622265653, -18863.195939445013, -187500.02235174447, -187500.02235174447, 187500.0, 187500.0, 187500.0, -187500.02235174447, -0.036000000000000004, 0.806, 0.596, 192.0, 0.0, 0.0, 0.0, 0.0, 0.0, 0.0, 0.0, 0.0, 0.0, 1.7124604644157991E9, 0.0, 2024-04-06 23:27:44.415
25.0, -1386.2775428625994, -12680.725774851535, -187500.02235174447, -187500.02235174447, 187500.0, 187500.0, 187500.0, -187500.02235174447, -0.036000000000000004, 0.806, 0.596, 192.0, 0.0, 0.0, 0.0, 0.0, 0.0, 0.0, 0.0, 0.0, 0.0, 1.712460464415809E9, 0.0, 2024-04-06 23:27:44.415
26.0, -1399.643886046873, -19453.66197272086, -187500.02235174447, -187500.02235174447, 187500.0, 187500.0, 187500.0, -187500.02235174447, -0.036000000000000004, 0.806, 0.596, 192.0, 0.0, 0.0, 0.0, 0.0, 0.0, 0.0, 0.0, 0.0, 0.0, 1.7124604644158175E9, 0.0, 2024-04-06 23:27:44.415
